# scan = 20
# date = 9/5/2017
# time = 2:17:59 PM
# proposal = 19739
# experiment = Separation of phonon and magnetic scattering near the Majorana mode in Î±-RuCl3: feasibility study
# experiment_number = 600
# command = scan s1 145 125 0.1
# builtin_command = scan s1 145 125 0.1
# users = Paula Kelley
# local_contact = 
# scan_title = Co-Alignment on post RT 3 0 0 postion
# monochromator = PG002
# analyzer = Pg002
# sense = -+-
# collimation = 48-40-40-120
# samplename = RuCl3
# sampletype = crystal
# samplemosaic = 30.000000
# latticeconstants = 5.975000,5.975000,17.000000,90.000000,90.000000,120.000000
# ubmatrix = -0.193255,-0.096628,0.000000,-0.000000,0.000000,-0.058824,0.000000,-0.167364,0.000000
# mode = 0
# plane_normal = 0.000000,0.000000,1.000000
# ubconf = UB05Sep2017_10850PM.ini
# preset_type = normal 
# preset_channel = time
# preset_value = 1.000000
# def_x = s1
# def_y = detector
# col_headers = 
#   Pt.         s1       time   detector    monitor        mcu focal_length         m1         m2   mcrystal       marc     mtrans     mfocus        bab        bal        bar        bat        bbb        bbl        bbr        bbt         s2        sgl        sgu        stl        stu         a1         a2          q          h          k          l         ei         ef          e   cold_tip    tsample       temp
      1   145.0002      1.000    418.000  13581.000      5.172    66.7975   -22.2454   -41.1655   119.9771     2.6000    -2.0000   -34.2897    39.0000    30.0000    30.0000    39.0000    10.0000    30.0000    30.0000    30.0000    86.2904     0.0000    -1.9995    -0.0010     0.0000   159.4104   -41.1799     3.6423    -0.5566    -0.1183    -9.6390    14.7005    14.6907     0.0098     1.0000     1.0000     1.000
      2   144.9001      1.000    423.000  13382.000      5.096    66.7975   -22.2454   -41.1655   119.9771     2.6000    -2.0000   -34.2897    39.0000    30.0000    30.0000    39.0000    10.0000    30.0000    30.0000    30.0000    86.2904     0.0000    -1.9995    -0.0010     0.0000   159.4104   -41.1799     3.6423    -0.5514    -0.1183    -9.6426    14.7005    14.6907     0.0098     1.0000     1.0000     1.000
      3   144.8001      1.000    453.000  13655.000      5.200    66.7975   -22.2454   -41.1655   119.9771     2.6000    -2.0000   -34.2897    39.0000    30.0000    30.0000    39.0000    10.0000    30.0000    30.0000    30.0000    86.2904     0.0000    -1.9995    -0.0010     0.0000   159.4104   -41.1799     3.6423    -0.5463    -0.1184    -9.6460    14.7005    14.6907     0.0098     1.0000     1.0000     1.000
      4   144.7001      1.000    439.000  13750.000      5.236    66.7975   -22.2454   -41.1655   119.9771     2.6000    -2.0000   -34.2897    39.0000    30.0000    30.0000    39.0000    10.0000    30.0000    30.0000    30.0000    86.2904     0.0000    -1.9995    -0.0010     0.0000   159.4104   -41.1799     3.6423    -0.5411    -0.1184    -9.6495    14.7005    14.6907     0.0098     1.0000     1.0000     1.000
      5   144.6000      1.000    471.000  13594.000      5.177    66.7975   -22.2454   -41.1655   119.9771     2.6000    -2.0000   -34.2897    39.0000    30.0000    30.0000    39.0000    10.0000    30.0000    30.0000    30.0000    86.2904     0.0000    -1.9995    -0.0010     0.0000   159.4104   -41.1799     3.6423    -0.5360    -0.1184    -9.6529    14.7005    14.6907     0.0098     1.0000     1.0000     1.000
      6   144.5000      1.000    472.000  13680.000      5.209    66.7975   -22.2454   -41.1655   119.9771     2.6000    -2.0000   -34.2897    39.0000    30.0000    30.0000    39.0000    10.0000    30.0000    30.0000    30.0000    86.2904     0.0000    -1.9995    -0.0010     0.0000   159.4104   -41.1799     3.6423    -0.5308    -0.1185    -9.6563    14.7005    14.6907     0.0098     1.0000     1.0000     1.000
      7   144.4000      1.000    490.000  13700.000      5.217    66.7975   -22.2454   -41.1655   119.9771     2.6000    -2.0000   -34.2897    39.0000    30.0000    30.0000    39.0000    10.0000    30.0000    30.0000    30.0000    86.2904     0.0000    -1.9995    -0.0010     0.0000   159.4104   -41.1799     3.6423    -0.5257    -0.1185    -9.6597    14.7005    14.6907     0.0098     1.0000     1.0000     1.000
      8   144.3000      1.000    461.000  13675.000      5.208    66.7975   -22.2454   -41.1655   119.9771     2.6000    -2.0000   -34.2897    39.0000    30.0000    30.0000    39.0000    10.0000    30.0000    30.0000    30.0000    86.2904     0.0000    -1.9995    -0.0010     0.0000   159.4104   -41.1799     3.6423    -0.5205    -0.1186    -9.6630    14.7005    14.6907     0.0098     1.0000     1.0000     1.000
      9   144.2000      1.000    511.000  13564.000      5.165    66.7975   -22.2454   -41.1655   119.9771     2.6000    -2.0000   -34.2897    39.0000    30.0000    30.0000    39.0000    10.0000    30.0000    30.0000    30.0000    86.2904     0.0000    -1.9995    -0.0010     0.0000   159.4104   -41.1799     3.6423    -0.5153    -0.1186    -9.6663    14.7005    14.6907     0.0098     1.0000     1.0000     1.000
     10   144.0999      1.000    508.000  13557.000      5.163    66.7975   -22.2454   -41.1655   119.9771     2.6000    -2.0000   -34.2897    39.0000    30.0000    30.0000    39.0000    10.0000    30.0000    30.0000    30.0000    86.2904     0.0000    -1.9995    -0.0010     0.0000   159.4104   -41.1799     3.6423    -0.5102    -0.1187    -9.6696    14.7005    14.6907     0.0098     1.0000     1.0000     1.000
     11   144.0001      1.000    578.000  13525.000      5.150    66.7975   -22.2454   -41.1655   119.9771     2.6000    -2.0000   -34.2897    39.0000    30.0000    30.0000    39.0000    10.0000    30.0000    30.0000    30.0000    86.2904     0.0000    -1.9995    -0.0010     0.0000   159.4104   -41.1799     3.6423    -0.5050    -0.1187    -9.6729    14.7005    14.6907     0.0098     1.0000     1.0000     1.000
     12   143.9001      1.000    609.000  13630.000      5.190    66.7975   -22.2454   -41.1655   119.9771     2.6000    -2.0000   -34.2897    39.0000    30.0000    30.0000    39.0000    10.0000    30.0000    30.0000    30.0000    86.2904     0.0000    -1.9995    -0.0010     0.0000   159.4104   -41.1799     3.6423    -0.4999    -0.1187    -9.6761    14.7005    14.6907     0.0098     1.0000     1.0000     1.000
     13   143.8001      1.000    724.000  13635.000      5.192    66.7975   -22.2454   -41.1655   119.9771     2.6000    -2.0000   -34.2897    39.0000    30.0000    30.0000    39.0000    10.0000    30.0000    30.0000    30.0000    86.2904     0.0000    -1.9995    -0.0010     0.0000   159.4104   -41.1799     3.6423    -0.4947    -0.1188    -9.6793    14.7005    14.6907     0.0098     1.0000     1.0000     1.000
     14   143.7000      1.000    780.000  13586.000      5.174    66.7975   -22.2454   -41.1655   119.9771     2.6000    -2.0000   -34.2897    39.0000    30.0000    30.0000    39.0000    10.0000    30.0000    30.0000    30.0000    86.2904     0.0000    -1.9995    -0.0010     0.0000   159.4104   -41.1799     3.6423    -0.4895    -0.1188    -9.6824    14.7005    14.6907     0.0098     1.0000     1.0000     1.000
     15   143.6000      1.000    733.000  13572.000      5.168    66.7975   -22.2454   -41.1655   119.9771     2.6000    -2.0000   -34.2897    39.0000    30.0000    30.0000    39.0000    10.0000    30.0000    30.0000    30.0000    86.2904     0.0000    -1.9995    -0.0010     0.0000   159.4104   -41.1799     3.6423    -0.4844    -0.1188    -9.6856    14.7005    14.6907     0.0098     1.0000     1.0000     1.000
     16   143.5000      1.000    760.000  13583.000      5.173    66.7975   -22.2454   -41.1655   119.9771     2.6000    -2.0000   -34.2897    39.0000    30.0000    30.0000    39.0000    10.0000    30.0000    30.0000    30.0000    86.2904     0.0000    -1.9995    -0.0010     0.0000   159.4104   -41.1799     3.6423    -0.4792    -0.1189    -9.6887    14.7005    14.6907     0.0098     1.0000     1.0000     1.000
     17   143.4000      1.000    713.000  13476.000      5.132    66.7975   -22.2454   -41.1655   119.9771     2.6000    -2.0000   -34.2897    39.0000    30.0000    30.0000    39.0000    10.0000    30.0000    30.0000    30.0000    86.2904     0.0000    -1.9995    -0.0010     0.0000   159.4104   -41.1799     3.6423    -0.4740    -0.1189    -9.6917    14.7005    14.6907     0.0098     1.0000     1.0000     1.000
     18   143.3000      1.000    696.000  13626.000      5.189    66.7975   -22.2454   -41.1655   119.9771     2.6000    -2.0000   -34.2897    39.0000    30.0000    30.0000    39.0000    10.0000    30.0000    30.0000    30.0000    86.2904     0.0000    -1.9995    -0.0010     0.0000   159.4104   -41.1799     3.6423    -0.4688    -0.1190    -9.6948    14.7005    14.6907     0.0098     1.0000     1.0000     1.000
     19   143.2000      1.000    694.000  13607.000      5.182    66.7975   -22.2454   -41.1655   119.9771     2.6000    -2.0000   -34.2897    39.0000    30.0000    30.0000    39.0000    10.0000    30.0000    30.0000    30.0000    86.2904     0.0000    -1.9995    -0.0010     0.0000   159.4104   -41.1799     3.6423    -0.4637    -0.1190    -9.6978    14.7005    14.6907     0.0098     1.0000     1.0000     1.000
     20   143.0999      1.000    706.000  13595.000      5.177    66.7975   -22.2454   -41.1655   119.9771     2.6000    -2.0000   -34.2897    39.0000    30.0000    30.0000    39.0000    10.0000    30.0000    30.0000    30.0000    86.2904     0.0000    -1.9995    -0.0010     0.0000   159.4104   -41.1799     3.6423    -0.4585    -0.1190    -9.7008    14.7005    14.6907     0.0098     1.0000     1.0000     1.000
     21   143.0001      1.000    703.000  13463.000      5.127    66.7975   -22.2454   -41.1655   119.9771     2.6000    -2.0000   -34.2897    39.0000    30.0000    30.0000    39.0000    10.0000    30.0000    30.0000    30.0000    86.2904     0.0000    -1.9995    -0.0010     0.0000   159.4104   -41.1799     3.6423    -0.4533    -0.1191    -9.7037    14.7005    14.6907     0.0098     1.0000     1.0000     1.000
     22   142.9001      1.000    707.000  13596.000      5.177    66.7975   -22.2454   -41.1655   119.9771     2.6000    -2.0000   -34.2897    39.0000    30.0000    30.0000    39.0000    10.0000    30.0000    30.0000    30.0000    86.2904     0.0000    -1.9995    -0.0010     0.0000   159.4104   -41.1799     3.6423    -0.4482    -0.1191    -9.7067    14.7005    14.6907     0.0098     1.0000     1.0000     1.000
     23   142.8001      1.000    747.000  13572.000      5.168    66.7975   -22.2454   -41.1655   119.9771     2.6000    -2.0000   -34.2897    39.0000    30.0000    30.0000    39.0000    10.0000    30.0000    30.0000    30.0000    86.2904     0.0000    -1.9995    -0.0010     0.0000   159.4104   -41.1799     3.6423    -0.4430    -0.1191    -9.7095    14.7005    14.6907     0.0098     1.0000     1.0000     1.000
     24   142.7000      1.000    765.000  13422.000      5.111    66.7975   -22.2454   -41.1655   119.9771     2.6000    -2.0000   -34.2897    39.0000    30.0000    30.0000    39.0000    10.0000    30.0000    30.0000    30.0000    86.2904     0.0000    -1.9995    -0.0010     0.0000   159.4104   -41.1799     3.6423    -0.4378    -0.1192    -9.7124    14.7005    14.6907     0.0098     1.0000     1.0000     1.000
     25   142.6000      1.000    679.000  13625.000      5.188    66.7975   -22.2454   -41.1655   119.9771     2.6000    -2.0000   -34.2897    39.0000    30.0000    30.0000    39.0000    10.0000    30.0000    30.0000    30.0000    86.2904     0.0000    -1.9995    -0.0010     0.0000   159.4104   -41.1799     3.6423    -0.4326    -0.1192    -9.7152    14.7005    14.6907     0.0098     1.0000     1.0000     1.000
     26   142.5000      1.000    742.000  13674.000      5.207    66.7975   -22.2454   -41.1655   119.9771     2.6000    -2.0000   -34.2897    39.0000    30.0000    30.0000    39.0000    10.0000    30.0000    30.0000    30.0000    86.2904     0.0000    -1.9995    -0.0010     0.0000   159.4104   -41.1799     3.6423    -0.4274    -0.1192    -9.7181    14.7005    14.6907     0.0098     1.0000     1.0000     1.000
     27   142.4000      1.000    663.000  13602.000      5.180    66.7975   -22.2454   -41.1655   119.9771     2.6000    -2.0000   -34.2897    39.0000    30.0000    30.0000    39.0000    10.0000    30.0000    30.0000    30.0000    86.2904     0.0000    -1.9995    -0.0010     0.0000   159.4104   -41.1799     3.6423    -0.4222    -0.1193    -9.7208    14.7005    14.6907     0.0098     1.0000     1.0000     1.000
     28   142.3000      1.000    681.000  13518.000      5.148    66.7975   -22.2454   -41.1655   119.9771     2.6000    -2.0000   -34.2897    39.0000    30.0000    30.0000    39.0000    10.0000    30.0000    30.0000    30.0000    86.2904     0.0000    -1.9995    -0.0010     0.0000   159.4104   -41.1799     3.6423    -0.4171    -0.1193    -9.7236    14.7005    14.6907     0.0098     1.0000     1.0000     1.000
     29   142.2000      1.000    750.000  13224.000      5.036    66.7975   -22.2454   -41.1655   119.9771     2.6000    -2.0000   -34.2897    39.0000    30.0000    30.0000    39.0000    10.0000    30.0000    30.0000    30.0000    86.2904     0.0000    -1.9995    -0.0010     0.0000   159.4104   -41.1799     3.6423    -0.4119    -0.1193    -9.7263    14.7005    14.6907     0.0098     1.0000     1.0000     1.000
     30   142.1000      1.000    878.000  13611.000      5.183    66.7975   -22.2454   -41.1655   119.9771     2.6000    -2.0000   -34.2897    39.0000    30.0000    30.0000    39.0000    10.0000    30.0000    30.0000    30.0000    86.2904     0.0000    -1.9995    -0.0010     0.0000   159.4104   -41.1799     3.6423    -0.4067    -0.1194    -9.7290    14.7005    14.6907     0.0098     1.0000     1.0000     1.000
     31   142.0000      1.000    985.000  13601.000      5.179    66.7975   -22.2454   -41.1655   119.9771     2.6000    -2.0000   -34.2897    39.0000    30.0000    30.0000    39.0000    10.0000    30.0000    30.0000    30.0000    86.2904     0.0000    -1.9995    -0.0010     0.0000   159.4104   -41.1799     3.6423    -0.4015    -0.1194    -9.7316    14.7005    14.6907     0.0098     1.0000     1.0000     1.000
     32   141.9000      1.000   1191.000  13791.000      5.252    66.7975   -22.2454   -41.1655   119.9771     2.6000    -2.0000   -34.2897    39.0000    30.0000    30.0000    39.0000    10.0000    30.0000    30.0000    30.0000    86.2904     0.0000    -1.9995    -0.0010     0.0000   159.4104   -41.1799     3.6423    -0.3963    -0.1194    -9.7343    14.7005    14.6907     0.0098     1.0000     1.0000     1.000
     33   141.8000      1.000   1259.000  13558.000      5.163    66.7975   -22.2454   -41.1655   119.9771     2.6000    -2.0000   -34.2897    39.0000    30.0000    30.0000    39.0000    10.0000    30.0000    30.0000    30.0000    86.2904     0.0000    -1.9995    -0.0010     0.0000   159.4104   -41.1799     3.6423    -0.3911    -0.1195    -9.7369    14.7005    14.6907     0.0098     1.0000     1.0000     1.000
     34   141.7000      1.000   1561.000  13417.000      5.109    66.7975   -22.2454   -41.1655   119.9771     2.6000    -2.0000   -34.2897    39.0000    30.0000    30.0000    39.0000    10.0000    30.0000    30.0000    30.0000    86.2904     0.0000    -1.9995    -0.0010     0.0000   159.4104   -41.1799     3.6423    -0.3859    -0.1195    -9.7394    14.7005    14.6907     0.0098     1.0000     1.0000     1.000
     35   141.6000      1.000   1976.000  13549.000      5.160    66.7975   -22.2454   -41.1655   119.9771     2.6000    -2.0000   -34.2897    39.0000    30.0000    30.0000    39.0000    10.0000    30.0000    30.0000    30.0000    86.2904     0.0000    -1.9995    -0.0010     0.0000   159.4104   -41.1799     3.6423    -0.3807    -0.1195    -9.7420    14.7005    14.6907     0.0098     1.0000     1.0000     1.000
     36   141.5000      1.000   2514.000  13316.000      5.071    66.7975   -22.2454   -41.1655   119.9771     2.6000    -2.0000   -34.2897    39.0000    30.0000    30.0000    39.0000    10.0000    30.0000    30.0000    30.0000    86.2904     0.0000    -1.9995    -0.0010     0.0000   159.4104   -41.1799     3.6423    -0.3755    -0.1196    -9.7445    14.7005    14.6907     0.0098     1.0000     1.0000     1.000
     37   141.4000      1.000   2760.000  13418.000      5.110    66.7975   -22.2454   -41.1655   119.9771     2.6000    -2.0000   -34.2897    39.0000    30.0000    30.0000    39.0000    10.0000    30.0000    30.0000    30.0000    86.2904     0.0000    -1.9995    -0.0010     0.0000   159.4104   -41.1799     3.6423    -0.3703    -0.1196    -9.7470    14.7005    14.6907     0.0098     1.0000     1.0000     1.000
     38   141.3000      1.000   2658.000  13633.000      5.192    66.7975   -22.2454   -41.1655   119.9771     2.6000    -2.0000   -34.2897    39.0000    30.0000    30.0000    39.0000    10.0000    30.0000    30.0000    30.0000    86.2904     0.0000    -1.9995    -0.0010     0.0000   159.4104   -41.1799     3.6423    -0.3651    -0.1196    -9.7494    14.7005    14.6907     0.0098     1.0000     1.0000     1.000
     39   141.2000      1.000   2099.000  13673.000      5.207    66.7975   -22.2454   -41.1655   119.9771     2.6000    -2.0000   -34.2897    39.0000    30.0000    30.0000    39.0000    10.0000    30.0000    30.0000    30.0000    86.2904     0.0000    -1.9995    -0.0010     0.0000   159.4104   -41.1799     3.6423    -0.3599    -0.1197    -9.7518    14.7005    14.6907     0.0098     1.0000     1.0000     1.000
     40   141.1000      1.000   1500.000  13569.000      5.167    66.7975   -22.2454   -41.1655   119.9771     2.6000    -2.0000   -34.2897    39.0000    30.0000    30.0000    39.0000    10.0000    30.0000    30.0000    30.0000    86.2904     0.0000    -1.9995    -0.0010     0.0000   159.4104   -41.1799     3.6423    -0.3547    -0.1197    -9.7542    14.7005    14.6907     0.0098     1.0000     1.0000     1.000
     41   141.0001      1.000   1208.000  13627.000      5.189    66.7975   -22.2454   -41.1655   119.9771     2.6000    -2.0000   -34.2897    39.0000    30.0000    30.0000    39.0000    10.0000    30.0000    30.0000    30.0000    86.2904     0.0000    -1.9995    -0.0010     0.0000   159.4104   -41.1799     3.6423    -0.3496    -0.1197    -9.7566    14.7005    14.6907     0.0098     1.0000     1.0000     1.000
     42   140.9000      1.000   1190.000  13453.000      5.123    66.7975   -22.2454   -41.1655   119.9771     2.6000    -2.0000   -34.2897    39.0000    30.0000    30.0000    39.0000    10.0000    30.0000    30.0000    30.0000    86.2904     0.0000    -1.9995    -0.0010     0.0000   159.4104   -41.1799     3.6423    -0.3443    -0.1197    -9.7589    14.7005    14.6907     0.0098     1.0000     1.0000     1.000
     43   140.8000      1.000   1146.000  13571.000      5.168    66.7975   -22.2454   -41.1655   119.9771     2.6000    -2.0000   -34.2897    39.0000    30.0000    30.0000    39.0000    10.0000    30.0000    30.0000    30.0000    86.2904     0.0000    -1.9995    -0.0010     0.0000   159.4104   -41.1799     3.6423    -0.3391    -0.1198    -9.7612    14.7005    14.6907     0.0098     1.0000     1.0000     1.000
     44   140.7000      1.000   1143.000  13454.000      5.123    66.7975   -22.2454   -41.1655   119.9771     2.6000    -2.0000   -34.2897    39.0000    30.0000    30.0000    39.0000    10.0000    30.0000    30.0000    30.0000    86.2904     0.0000    -1.9995    -0.0010     0.0000   159.4104   -41.1799     3.6423    -0.3339    -0.1198    -9.7635    14.7005    14.6907     0.0098     1.0000     1.0000     1.000
     45   140.6000      1.000   1191.000  13711.000      5.221    66.7975   -22.2454   -41.1655   119.9771     2.6000    -2.0000   -34.2897    39.0000    30.0000    30.0000    39.0000    10.0000    30.0000    30.0000    30.0000    86.2904     0.0000    -1.9995    -0.0010     0.0000   159.4104   -41.1799     3.6423    -0.3287    -0.1198    -9.7657    14.7005    14.6907     0.0098     1.0000     1.0000     1.000
     46   140.5000      1.000   1171.000  13742.000      5.233    66.7975   -22.2454   -41.1655   119.9771     2.6000    -2.0000   -34.2897    39.0000    30.0000    30.0000    39.0000    10.0000    30.0000    30.0000    30.0000    86.2904     0.0000    -1.9995    -0.0010     0.0000   159.4104   -41.1799     3.6423    -0.3235    -0.1199    -9.7679    14.7005    14.6907     0.0098     1.0000     1.0000     1.000
     47   140.4000      1.000   1192.000  13324.000      5.074    66.7975   -22.2454   -41.1655   119.9771     2.6000    -2.0000   -34.2897    39.0000    30.0000    30.0000    39.0000    10.0000    30.0000    30.0000    30.0000    86.2904     0.0000    -1.9995    -0.0010     0.0000   159.4104   -41.1799     3.6423    -0.3183    -0.1199    -9.7701    14.7005    14.6907     0.0098     1.0000     1.0000     1.000
     48   140.3000      1.000   1155.000  13549.000      5.160    66.7975   -22.2454   -41.1655   119.9771     2.6000    -2.0000   -34.2897    39.0000    30.0000    30.0000    39.0000    10.0000    30.0000    30.0000    30.0000    86.2904     0.0000    -1.9995    -0.0010     0.0000   159.4104   -41.1799     3.6423    -0.3131    -0.1199    -9.7723    14.7005    14.6907     0.0098     1.0000     1.0000     1.000
     49   140.2000      1.000   1228.000  13737.000      5.231    66.7975   -22.2454   -41.1655   119.9771     2.6000    -2.0000   -34.2897    39.0000    30.0000    30.0000    39.0000    10.0000    30.0000    30.0000    30.0000    86.2904     0.0000    -1.9995    -0.0010     0.0000   159.4104   -41.1799     3.6423    -0.3079    -0.1199    -9.7744    14.7005    14.6907     0.0098     1.0000     1.0000     1.000
     50   140.1000      1.000   1269.000  13509.000      5.144    66.7975   -22.2454   -41.1655   119.9771     2.6000    -2.0000   -34.2897    39.0000    30.0000    30.0000    39.0000    10.0000    30.0000    30.0000    30.0000    86.2904     0.0000    -1.9995    -0.0010     0.0000   159.4104   -41.1799     3.6423    -0.3027    -0.1200    -9.7765    14.7005    14.6907     0.0098     1.0000     1.0000     1.000
     51   140.0001      1.000   1280.000  13466.000      5.128    66.7975   -22.2454   -41.1655   119.9771     2.6000    -2.0000   -34.2897    39.0000    30.0000    30.0000    39.0000    10.0000    30.0000    30.0000    30.0000    86.2904     0.0000    -1.9995    -0.0010     0.0000   159.4104   -41.1799     3.6423    -0.2975    -0.1200    -9.7786    14.7005    14.6907     0.0098     1.0000     1.0000     1.000
     52   139.9000      1.000   1282.000  13774.000      5.245    66.7975   -22.2454   -41.1655   119.9771     2.6000    -2.0000   -34.2897    39.0000    30.0000    30.0000    39.0000    10.0000    30.0000    30.0000    30.0000    86.2904     0.0000    -1.9995    -0.0010     0.0000   159.4104   -41.1799     3.6423    -0.2923    -0.1200    -9.7806    14.7005    14.6907     0.0098     1.0000     1.0000     1.000
     53   139.8000      1.000   1371.000  13462.000      5.126    66.7975   -22.2454   -41.1655   119.9771     2.6000    -2.0000   -34.2897    39.0000    30.0000    30.0000    39.0000    10.0000    30.0000    30.0000    30.0000    86.2904     0.0000    -1.9995    -0.0010     0.0000   159.4104   -41.1799     3.6423    -0.2871    -0.1200    -9.7826    14.7005    14.6907     0.0098     1.0000     1.0000     1.000
     54   139.7000      1.000   1478.000  13331.000      5.077    66.7975   -22.2454   -41.1655   119.9771     2.6000    -2.0000   -34.2897    39.0000    30.0000    30.0000    39.0000    10.0000    30.0000    30.0000    30.0000    86.2904     0.0000    -1.9995    -0.0010     0.0000   159.4104   -41.1799     3.6423    -0.2819    -0.1201    -9.7846    14.7005    14.6907     0.0098     1.0000     1.0000     1.000
     55   139.6000      1.000   1613.000  13461.000      5.126    66.7975   -22.2454   -41.1655   119.9771     2.6000    -2.0000   -34.2897    39.0000    30.0000    30.0000    39.0000    10.0000    30.0000    30.0000    30.0000    86.2904     0.0000    -1.9995    -0.0010     0.0000   159.4104   -41.1799     3.6423    -0.2766    -0.1201    -9.7865    14.7005    14.6907     0.0098     1.0000     1.0000     1.000
     56   139.5000      1.000   1752.000  13549.000      5.160    66.7975   -22.2454   -41.1655   119.9771     2.6000    -2.0000   -34.2897    39.0000    30.0000    30.0000    39.0000    10.0000    30.0000    30.0000    30.0000    86.2904     0.0000    -1.9995    -0.0010     0.0000   159.4104   -41.1799     3.6423    -0.2714    -0.1201    -9.7884    14.7005    14.6907     0.0098     1.0000     1.0000     1.000
     57   139.4000      1.000   1883.000  13697.000      5.216    66.7975   -22.2454   -41.1655   119.9771     2.6000    -2.0000   -34.2897    39.0000    30.0000    30.0000    39.0000    10.0000    30.0000    30.0000    30.0000    86.2904     0.0000    -1.9995    -0.0010     0.0000   159.4104   -41.1799     3.6423    -0.2662    -0.1201    -9.7903    14.7005    14.6907     0.0098     1.0000     1.0000     1.000
     58   139.3000      1.000   2214.000  13423.000      5.112    66.7975   -22.2454   -41.1655   119.9771     2.6000    -2.0000   -34.2897    39.0000    30.0000    30.0000    39.0000    10.0000    30.0000    30.0000    30.0000    86.2904     0.0000    -1.9995    -0.0010     0.0000   159.4104   -41.1799     3.6423    -0.2610    -0.1202    -9.7922    14.7005    14.6907     0.0098     1.0000     1.0000     1.000
     59   139.2000      1.000   2329.000  13537.000      5.155    66.7975   -22.2454   -41.1655   119.9771     2.6000    -2.0000   -34.2897    39.0000    30.0000    30.0000    39.0000    10.0000    30.0000    30.0000    30.0000    86.2904     0.0000    -1.9995    -0.0010     0.0000   159.4104   -41.1799     3.6423    -0.2558    -0.1202    -9.7940    14.7005    14.6907     0.0098     1.0000     1.0000     1.000
     60   139.1000      1.000   2643.000  13386.000      5.097    66.7975   -22.2454   -41.1655   119.9771     2.6000    -2.0000   -34.2897    39.0000    30.0000    30.0000    39.0000    10.0000    30.0000    30.0000    30.0000    86.2904     0.0000    -1.9995    -0.0010     0.0000   159.4104   -41.1799     3.6423    -0.2506    -0.1202    -9.7958    14.7005    14.6907     0.0098     1.0000     1.0000     1.000
     61   139.0000      1.000   2992.000  13440.000      5.118    66.7975   -22.2454   -41.1655   119.9771     2.6000    -2.0000   -34.2897    39.0000    30.0000    30.0000    39.0000    10.0000    30.0000    30.0000    30.0000    86.2904     0.0000    -1.9995    -0.0010     0.0000   159.4104   -41.1799     3.6423    -0.2453    -0.1202    -9.7976    14.7005    14.6907     0.0098     1.0000     1.0000     1.000
     62   138.9000      1.000   3576.000  13155.000      5.010    66.7975   -22.2454   -41.1655   119.9771     2.6000    -2.0000   -34.2897    39.0000    30.0000    30.0000    39.0000    10.0000    30.0000    30.0000    30.0000    86.2904     0.0000    -1.9995    -0.0010     0.0000   159.4104   -41.1799     3.6423    -0.2401    -0.1202    -9.7993    14.7005    14.6907     0.0098     1.0000     1.0000     1.000
     63   138.8000      1.000   3544.000  13427.000      5.113    66.7975   -22.2454   -41.1655   119.9771     2.6000    -2.0000   -34.2897    39.0000    30.0000    30.0000    39.0000    10.0000    30.0000    30.0000    30.0000    86.2904     0.0000    -1.9995    -0.0010     0.0000   159.4104   -41.1799     3.6423    -0.2349    -0.1203    -9.8010    14.7005    14.6907     0.0098     1.0000     1.0000     1.000
     64   138.7000      1.000   2738.000  13395.000      5.101    66.7975   -22.2454   -41.1655   119.9771     2.6000    -2.0000   -34.2897    39.0000    30.0000    30.0000    39.0000    10.0000    30.0000    30.0000    30.0000    86.2904     0.0000    -1.9995    -0.0010     0.0000   159.4104   -41.1799     3.6423    -0.2297    -0.1203    -9.8027    14.7005    14.6907     0.0098     1.0000     1.0000     1.000
     65   138.6000      1.000   2331.000  13447.000      5.121    66.7975   -22.2454   -41.1655   119.9771     2.6000    -2.0000   -34.2897    39.0000    30.0000    30.0000    39.0000    10.0000    30.0000    30.0000    30.0000    86.2904     0.0000    -1.9995    -0.0010     0.0000   159.4104   -41.1799     3.6423    -0.2245    -0.1203    -9.8043    14.7005    14.6907     0.0098     1.0000     1.0000     1.000
     66   138.5000      1.000   2244.000  13482.000      5.134    66.7975   -22.2454   -41.1655   119.9771     2.6000    -2.0000   -34.2897    39.0000    30.0000    30.0000    39.0000    10.0000    30.0000    30.0000    30.0000    86.2904     0.0000    -1.9995    -0.0010     0.0000   159.4104   -41.1799     3.6423    -0.2192    -0.1203    -9.8059    14.7005    14.6907     0.0098     1.0000     1.0000     1.000
     67   138.4000      1.000   2211.000  13324.000      5.074    66.7975   -22.2454   -41.1655   119.9771     2.6000    -2.0000   -34.2897    39.0000    30.0000    30.0000    39.0000    10.0000    30.0000    30.0000    30.0000    86.2904     0.0000    -1.9995    -0.0010     0.0000   159.4104   -41.1799     3.6423    -0.2140    -0.1203    -9.8075    14.7005    14.6907     0.0098     1.0000     1.0000     1.000
     68   138.3000      1.000   2208.000  13500.000      5.141    66.7975   -22.2454   -41.1655   119.9771     2.6000    -2.0000   -34.2897    39.0000    30.0000    30.0000    39.0000    10.0000    30.0000    30.0000    30.0000    86.2904     0.0000    -1.9995    -0.0010     0.0000   159.4104   -41.1799     3.6423    -0.2088    -0.1204    -9.8091    14.7005    14.6907     0.0098     1.0000     1.0000     1.000
     69   138.2000      1.000   2284.000  13468.000      5.129    66.7975   -22.2454   -41.1655   119.9771     2.6000    -2.0000   -34.2897    39.0000    30.0000    30.0000    39.0000    10.0000    30.0000    30.0000    30.0000    86.2904     0.0000    -1.9995    -0.0010     0.0000   159.4104   -41.1799     3.6423    -0.2036    -0.1204    -9.8106    14.7005    14.6907     0.0098     1.0000     1.0000     1.000
     70   138.1000      1.000   2127.000  13446.000      5.120    66.7975   -22.2454   -41.1655   119.9771     2.6000    -2.0000   -34.2897    39.0000    30.0000    30.0000    39.0000    10.0000    30.0000    30.0000    30.0000    86.2904     0.0000    -1.9995    -0.0010     0.0000   159.4104   -41.1799     3.6423    -0.1983    -0.1204    -9.8121    14.7005    14.6907     0.0098     1.0000     1.0000     1.000
     71   138.0000      1.000   2075.000  13280.000      5.057    66.7975   -22.2454   -41.1655   119.9771     2.6000    -2.0000   -34.2897    39.0000    30.0000    30.0000    39.0000    10.0000    30.0000    30.0000    30.0000    86.2904     0.0000    -1.9995    -0.0010     0.0000   159.4104   -41.1799     3.6423    -0.1931    -0.1204    -9.8136    14.7005    14.6907     0.0098     1.0000     1.0000     1.000
     72   137.9000      1.000   2129.000  13548.000      5.159    66.7975   -22.2454   -41.1655   119.9771     2.6000    -2.0000   -34.2897    39.0000    30.0000    30.0000    39.0000    10.0000    30.0000    30.0000    30.0000    86.2904     0.0000    -1.9995    -0.0010     0.0000   159.4104   -41.1799     3.6423    -0.1879    -0.1204    -9.8150    14.7005    14.6907     0.0098     1.0000     1.0000     1.000
     73   137.8000      1.000   2158.000  13656.000      5.200    66.7975   -22.2454   -41.1655   119.9771     2.6000    -2.0000   -34.2897    39.0000    30.0000    30.0000    39.0000    10.0000    30.0000    30.0000    30.0000    86.2904     0.0000    -1.9995    -0.0010     0.0000   159.4104   -41.1799     3.6423    -0.1827    -0.1205    -9.8164    14.7005    14.6907     0.0098     1.0000     1.0000     1.000
     74   137.7000      1.000   2027.000  13573.000      5.169    66.7975   -22.2454   -41.1655   119.9771     2.6000    -2.0000   -34.2897    39.0000    30.0000    30.0000    39.0000    10.0000    30.0000    30.0000    30.0000    86.2904     0.0000    -1.9995    -0.0010     0.0000   159.4104   -41.1799     3.6423    -0.1774    -0.1205    -9.8178    14.7005    14.6907     0.0098     1.0000     1.0000     1.000
     75   137.6000      1.000   2050.000  13686.000      5.212    66.7975   -22.2454   -41.1655   119.9771     2.6000    -2.0000   -34.2897    39.0000    30.0000    30.0000    39.0000    10.0000    30.0000    30.0000    30.0000    86.2904     0.0000    -1.9995    -0.0010     0.0000   159.4104   -41.1799     3.6423    -0.1722    -0.1205    -9.8191    14.7005    14.6907     0.0098     1.0000     1.0000     1.000
     76   137.5000      1.000   2147.000  13632.000      5.191    66.7975   -22.2454   -41.1655   119.9771     2.6000    -2.0000   -34.2897    39.0000    30.0000    30.0000    39.0000    10.0000    30.0000    30.0000    30.0000    86.2904     0.0000    -1.9995    -0.0010     0.0000   159.4104   -41.1799     3.6423    -0.1670    -0.1205    -9.8205    14.7005    14.6907     0.0098     1.0000     1.0000     1.000
     77   137.4000      1.000   2071.000  13463.000      5.127    66.7975   -22.2454   -41.1655   119.9771     2.6000    -2.0000   -34.2897    39.0000    30.0000    30.0000    39.0000    10.0000    30.0000    30.0000    30.0000    86.2904     0.0000    -1.9995    -0.0010     0.0000   159.4104   -41.1799     3.6423    -0.1618    -0.1205    -9.8217    14.7005    14.6907     0.0098     1.0000     1.0000     1.000
     78   137.3000      1.000   2091.000  13369.000      5.091    66.7975   -22.2454   -41.1655   119.9771     2.6000    -2.0000   -34.2897    39.0000    30.0000    30.0000    39.0000    10.0000    30.0000    30.0000    30.0000    86.2904     0.0000    -1.9995    -0.0010     0.0000   159.4104   -41.1799     3.6423    -0.1565    -0.1205    -9.8230    14.7005    14.6907     0.0098     1.0000     1.0000     1.000
     79   137.2000      1.000   2104.000  13571.000      5.168    66.7975   -22.2454   -41.1655   119.9771     2.6000    -2.0000   -34.2897    39.0000    30.0000    30.0000    39.0000    10.0000    30.0000    30.0000    30.0000    86.2904     0.0000    -1.9995    -0.0010     0.0000   159.4104   -41.1799     3.6423    -0.1513    -0.1205    -9.8242    14.7005    14.6907     0.0098     1.0000     1.0000     1.000
     80   137.1000      1.000   2148.000  13397.000      5.102    66.7975   -22.2454   -41.1655   119.9771     2.6000    -2.0000   -34.2897    39.0000    30.0000    30.0000    39.0000    10.0000    30.0000    30.0000    30.0000    86.2904     0.0000    -1.9995    -0.0010     0.0000   159.4104   -41.1799     3.6423    -0.1461    -0.1206    -9.8254    14.7005    14.6907     0.0098     1.0000     1.0000     1.000
     81   137.0000      1.000   2193.000  13549.000      5.160    66.7975   -22.2454   -41.1655   119.9771     2.6000    -2.0000   -34.2897    39.0000    30.0000    30.0000    39.0000    10.0000    30.0000    30.0000    30.0000    86.2904     0.0000    -1.9995    -0.0010     0.0000   159.4104   -41.1799     3.6423    -0.1408    -0.1206    -9.8266    14.7005    14.6907     0.0098     1.0000     1.0000     1.000
     82   136.9000      1.000   2250.000  13482.000      5.134    66.7975   -22.2454   -41.1655   119.9771     2.6000    -2.0000   -34.2897    39.0000    30.0000    30.0000    39.0000    10.0000    30.0000    30.0000    30.0000    86.2904     0.0000    -1.9995    -0.0010     0.0000   159.4104   -41.1799     3.6423    -0.1356    -0.1206    -9.8277    14.7005    14.6907     0.0098     1.0000     1.0000     1.000
     83   136.8000      1.000   2375.000  13520.000      5.149    66.7975   -22.2454   -41.1655   119.9771     2.6000    -2.0000   -34.2897    39.0000    30.0000    30.0000    39.0000    10.0000    30.0000    30.0000    30.0000    86.2904     0.0000    -1.9995    -0.0010     0.0000   159.4104   -41.1799     3.6423    -0.1304    -0.1206    -9.8288    14.7005    14.6907     0.0098     1.0000     1.0000     1.000
     84   136.7000      1.000   2346.000  13462.000      5.126    66.7975   -22.2454   -41.1655   119.9771     2.6000    -2.0000   -34.2897    39.0000    30.0000    30.0000    39.0000    10.0000    30.0000    30.0000    30.0000    86.2904     0.0000    -1.9995    -0.0010     0.0000   159.4104   -41.1799     3.6423    -0.1251    -0.1206    -9.8299    14.7005    14.6907     0.0098     1.0000     1.0000     1.000
     85   136.6000      1.000   2466.000  13505.000      5.143    66.7975   -22.2454   -41.1655   119.9771     2.6000    -2.0000   -34.2897    39.0000    30.0000    30.0000    39.0000    10.0000    30.0000    30.0000    30.0000    86.2904     0.0000    -1.9995    -0.0010     0.0000   159.4104   -41.1799     3.6423    -0.1199    -0.1206    -9.8310    14.7005    14.6907     0.0098     1.0000     1.0000     1.000
     86   136.5000      1.000   2482.000  13462.000      5.126    66.7975   -22.2454   -41.1655   119.9771     2.6000    -2.0000   -34.2897    39.0000    30.0000    30.0000    39.0000    10.0000    30.0000    30.0000    30.0000    86.2904     0.0000    -1.9995    -0.0010     0.0000   159.4104   -41.1799     3.6423    -0.1147    -0.1206    -9.8320    14.7005    14.6907     0.0098     1.0000     1.0000     1.000
     87   136.4000      1.000   2568.000  13423.000      5.112    66.7975   -22.2454   -41.1655   119.9771     2.6000    -2.0000   -34.2897    39.0000    30.0000    30.0000    39.0000    10.0000    30.0000    30.0000    30.0000    86.2904     0.0000    -1.9995    -0.0010     0.0000   159.4104   -41.1799     3.6423    -0.1094    -0.1207    -9.8330    14.7005    14.6907     0.0098     1.0000     1.0000     1.000
     88   136.3000      1.000   2846.000  13601.000      5.179    66.7975   -22.2454   -41.1655   119.9771     2.6000    -2.0000   -34.2897    39.0000    30.0000    30.0000    39.0000    10.0000    30.0000    30.0000    30.0000    86.2904     0.0000    -1.9995    -0.0010     0.0000   159.4104   -41.1799     3.6423    -0.1042    -0.1207    -9.8339    14.7005    14.6907     0.0098     1.0000     1.0000     1.000
     89   136.2000      1.000   3115.000  13630.000      5.190    66.7975   -22.2454   -41.1655   119.9771     2.6000    -2.0000   -34.2897    39.0000    30.0000    30.0000    39.0000    10.0000    30.0000    30.0000    30.0000    86.2904     0.0000    -1.9995    -0.0010     0.0000   159.4104   -41.1799     3.6423    -0.0990    -0.1207    -9.8349    14.7005    14.6907     0.0098     1.0000     1.0000     1.000
     90   136.1000      1.000   3405.000  13299.000      5.064    66.7975   -22.2454   -41.1655   119.9771     2.6000    -2.0000   -34.2897    39.0000    30.0000    30.0000    39.0000    10.0000    30.0000    30.0000    30.0000    86.2904     0.0000    -1.9995    -0.0010     0.0000   159.4104   -41.1799     3.6423    -0.0937    -0.1207    -9.8357    14.7005    14.6907     0.0098     1.0000     1.0000     1.000
     91   136.0000      1.000   3504.000  13574.000      5.169    66.7975   -22.2454   -41.1655   119.9771     2.6000    -2.0000   -34.2897    39.0000    30.0000    30.0000    39.0000    10.0000    30.0000    30.0000    30.0000    86.2904     0.0000    -1.9995    -0.0010     0.0000   159.4104   -41.1799     3.6423    -0.0885    -0.1207    -9.8366    14.7005    14.6907     0.0098     1.0000     1.0000     1.000
     92   135.9000      1.000   3779.000  13593.000      5.176    66.7975   -22.2454   -41.1655   119.9771     2.6000    -2.0000   -34.2897    39.0000    30.0000    30.0000    39.0000    10.0000    30.0000    30.0000    30.0000    86.2904     0.0000    -1.9995    -0.0010     0.0000   159.4104   -41.1799     3.6423    -0.0833    -0.1207    -9.8375    14.7005    14.6907     0.0098     1.0000     1.0000     1.000
     93   135.8000      1.000   3832.000  13493.000      5.138    66.7975   -22.2454   -41.1655   119.9771     2.6000    -2.0000   -34.2897    39.0000    30.0000    30.0000    39.0000    10.0000    30.0000    30.0000    30.0000    86.2904     0.0000    -1.9995    -0.0010     0.0000   159.4104   -41.1799     3.6423    -0.0780    -0.1207    -9.8383    14.7005    14.6907     0.0098     1.0000     1.0000     1.000
     94   135.7000      1.000   3828.000  13468.000      5.129    66.7975   -22.2454   -41.1655   119.9771     2.6000    -2.0000   -34.2897    39.0000    30.0000    30.0000    39.0000    10.0000    30.0000    30.0000    30.0000    86.2904     0.0000    -1.9995    -0.0010     0.0000   159.4104   -41.1799     3.6423    -0.0728    -0.1207    -9.8390    14.7005    14.6907     0.0098     1.0000     1.0000     1.000
     95   135.6000      1.000   3718.000  13484.000      5.135    66.7975   -22.2454   -41.1655   119.9771     2.6000    -2.0000   -34.2897    39.0000    30.0000    30.0000    39.0000    10.0000    30.0000    30.0000    30.0000    86.2904     0.0000    -1.9995    -0.0010     0.0000   159.4104   -41.1799     3.6423    -0.0676    -0.1207    -9.8398    14.7005    14.6907     0.0098     1.0000     1.0000     1.000
     96   135.5000      1.000   3807.000  13385.000      5.097    66.7975   -22.2454   -41.1655   119.9771     2.6000    -2.0000   -34.2897    39.0000    30.0000    30.0000    39.0000    10.0000    30.0000    30.0000    30.0000    86.2904     0.0000    -1.9995    -0.0010     0.0000   159.4104   -41.1799     3.6423    -0.0623    -0.1207    -9.8405    14.7005    14.6907     0.0098     1.0000     1.0000     1.000
     97   135.4000      1.000   3778.000  13516.000      5.147    66.7975   -22.2454   -41.1655   119.9771     2.6000    -2.0000   -34.2897    39.0000    30.0000    30.0000    39.0000    10.0000    30.0000    30.0000    30.0000    86.2904     0.0000    -1.9995    -0.0010     0.0000   159.4104   -41.1799     3.6423    -0.0571    -0.1208    -9.8412    14.7005    14.6907     0.0098     1.0000     1.0000     1.000
     98   135.3000      1.000   3918.000  13297.000      5.064    66.7975   -22.2454   -41.1655   119.9771     2.6000    -2.0000   -34.2897    39.0000    30.0000    30.0000    39.0000    10.0000    30.0000    30.0000    30.0000    86.2904     0.0000    -1.9995    -0.0010     0.0000   159.4104   -41.1799     3.6423    -0.0519    -0.1208    -9.8419    14.7005    14.6907     0.0098     1.0000     1.0000     1.000
     99   135.2000      1.000   3945.000  13315.000      5.070    66.7975   -22.2454   -41.1655   119.9771     2.6000    -2.0000   -34.2897    39.0000    30.0000    30.0000    39.0000    10.0000    30.0000    30.0000    30.0000    86.2904     0.0000    -1.9995    -0.0010     0.0000   159.4104   -41.1799     3.6423    -0.0466    -0.1208    -9.8425    14.7005    14.6907     0.0098     1.0000     1.0000     1.000
    100   135.1000      1.000   4178.000  13546.000      5.158    66.7975   -22.2454   -41.1655   119.9771     2.6000    -2.0000   -34.2897    39.0000    30.0000    30.0000    39.0000    10.0000    30.0000    30.0000    30.0000    86.2904     0.0000    -1.9995    -0.0010     0.0000   159.4104   -41.1799     3.6423    -0.0414    -0.1208    -9.8431    14.7005    14.6907     0.0098     1.0000     1.0000     1.000
    101   135.0000      1.000   4373.000  13297.000      5.064    66.7975   -22.2454   -41.1655   119.9771     2.6000    -2.0000   -34.2897    39.0000    30.0000    30.0000    39.0000    10.0000    30.0000    30.0000    30.0000    86.2904     0.0000    -1.9995    -0.0010     0.0000   159.4104   -41.1799     3.6423    -0.0362    -0.1208    -9.8436    14.7005    14.6907     0.0098     1.0000     1.0000     1.000
    102   134.9000      1.000   4956.000  13540.000      5.156    66.7975   -22.2454   -41.1655   119.9771     2.6000    -2.0000   -34.2897    39.0000    30.0000    30.0000    39.0000    10.0000    30.0000    30.0000    30.0000    86.2904     0.0000    -1.9995    -0.0010     0.0000   159.4104   -41.1799     3.6423    -0.0309    -0.1208    -9.8442    14.7005    14.6907     0.0098     1.0000     1.0000     1.000
    103   134.8000      1.000   5392.000  13251.000      5.046    66.7975   -22.2454   -41.1655   119.9771     2.6000    -2.0000   -34.2897    39.0000    30.0000    30.0000    39.0000    10.0000    30.0000    30.0000    30.0000    86.2904     0.0000    -1.9995    -0.0010     0.0000   159.4104   -41.1799     3.6423    -0.0257    -0.1208    -9.8447    14.7005    14.6907     0.0098     1.0000     1.0000     1.000
    104   134.7000      1.000   6005.000  13616.000      5.185    66.7975   -22.2454   -41.1655   119.9771     2.6000    -2.0000   -34.2897    39.0000    30.0000    30.0000    39.0000    10.0000    30.0000    30.0000    30.0000    86.2904     0.0000    -1.9995    -0.0010     0.0000   159.4104   -41.1799     3.6423    -0.0204    -0.1208    -9.8452    14.7005    14.6907     0.0098     1.0000     1.0000     1.000
    105   134.6000      1.000   6603.000  13609.000      5.182    66.7975   -22.2454   -41.1655   119.9771     2.6000    -2.0000   -34.2897    39.0000    30.0000    30.0000    39.0000    10.0000    30.0000    30.0000    30.0000    86.2904     0.0000    -1.9995    -0.0010     0.0000   159.4104   -41.1799     3.6423    -0.0152    -0.1208    -9.8456    14.7005    14.6907     0.0098     1.0000     1.0000     1.000
    106   134.5000      1.000   7575.000  13373.000      5.093    66.7975   -22.2454   -41.1655   119.9771     2.6000    -2.0000   -34.2897    39.0000    30.0000    30.0000    39.0000    10.0000    30.0000    30.0000    30.0000    86.2904     0.0000    -1.9995    -0.0010     0.0000   159.4104   -41.1799     3.6423    -0.0100    -0.1208    -9.8460    14.7005    14.6907     0.0098     1.0000     1.0000     1.000
    107   134.4000      1.000   8965.000  13407.000      5.105    66.7975   -22.2454   -41.1655   119.9771     2.6000    -2.0000   -34.2897    39.0000    30.0000    30.0000    39.0000    10.0000    30.0000    30.0000    30.0000    86.2904     0.0000    -1.9995    -0.0010     0.0000   159.4104   -41.1799     3.6423    -0.0047    -0.1208    -9.8464    14.7005    14.6907     0.0098     1.0000     1.0000     1.000
    108   134.3000      1.000  10199.000  13624.000      5.188    66.7975   -22.2454   -41.1655   119.9771     2.6000    -2.0000   -34.2897    39.0000    30.0000    30.0000    39.0000    10.0000    30.0000    30.0000    30.0000    86.2904     0.0000    -1.9995    -0.0010     0.0000   159.4104   -41.1799     3.6423     0.0005    -0.1208    -9.8468    14.7005    14.6907     0.0098     1.0000     1.0000     1.000
    109   134.2000      1.000  12299.000  13414.000      5.108    66.7975   -22.2454   -41.1655   119.9771     2.6000    -2.0000   -34.2897    39.0000    30.0000    30.0000    39.0000    10.0000    30.0000    30.0000    30.0000    86.2904     0.0000    -1.9995    -0.0010     0.0000   159.4104   -41.1799     3.6423     0.0057    -0.1208    -9.8471    14.7005    14.6907     0.0098     1.0000     1.0000     1.000
    110   134.1000      1.000  14082.000  13509.000      5.144    66.7975   -22.2454   -41.1655   119.9771     2.6000    -2.0000   -34.2897    39.0000    30.0000    30.0000    39.0000    10.0000    30.0000    30.0000    30.0000    86.2904     0.0000    -1.9995    -0.0010     0.0000   159.4104   -41.1799     3.6423     0.0110    -0.1208    -9.8474    14.7005    14.6907     0.0098     1.0000     1.0000     1.000
    111   134.0000      1.000  15593.000  13540.000      5.156    66.7975   -22.2454   -41.1655   119.9771     2.6000    -2.0000   -34.2897    39.0000    30.0000    30.0000    39.0000    10.0000    30.0000    30.0000    30.0000    86.2904     0.0000    -1.9995    -0.0010     0.0000   159.4104   -41.1799     3.6423     0.0162    -0.1208    -9.8477    14.7005    14.6907     0.0098     1.0000     1.0000     1.000
    112   133.9000      1.000  16597.000  13290.000      5.061    66.7975   -22.2454   -41.1655   119.9771     2.6000    -2.0000   -34.2897    39.0000    30.0000    30.0000    39.0000    10.0000    30.0000    30.0000    30.0000    86.2904     0.0000    -1.9995    -0.0010     0.0000   159.4104   -41.1799     3.6423     0.0214    -0.1208    -9.8479    14.7005    14.6907     0.0098     1.0000     1.0000     1.000
    113   133.8000      1.000  18347.000  13200.000      5.027    66.7975   -22.2454   -41.1655   119.9771     2.6000    -2.0000   -34.2897    39.0000    30.0000    30.0000    39.0000    10.0000    30.0000    30.0000    30.0000    86.2904     0.0000    -1.9995    -0.0010     0.0000   159.4104   -41.1799     3.6423     0.0267    -0.1208    -9.8481    14.7005    14.6907     0.0098     1.0000     1.0000     1.000
    114   133.7000      1.000  20643.000  13517.000      5.147    66.7975   -22.2454   -41.1655   119.9771     2.6000    -2.0000   -34.2897    39.0000    30.0000    30.0000    39.0000    10.0000    30.0000    30.0000    30.0000    86.2904     0.0000    -1.9995    -0.0010     0.0000   159.4104   -41.1799     3.6423     0.0319    -0.1208    -9.8483    14.7005    14.6907     0.0098     1.0000     1.0000     1.000
    115   133.6000      1.000  25358.000  13705.000      5.219    66.7975   -22.2454   -41.1655   119.9771     2.6000    -2.0000   -34.2897    39.0000    30.0000    30.0000    39.0000    10.0000    30.0000    30.0000    30.0000    86.2904     0.0000    -1.9995    -0.0010     0.0000   159.4104   -41.1799     3.6423     0.0371    -0.1208    -9.8485    14.7005    14.6907     0.0098     1.0000     1.0000     1.000
    116   133.5000      1.000  32955.000  13332.000      5.077    66.7975   -22.2454   -41.1655   119.9771     2.6000    -2.0000   -34.2897    39.0000    30.0000    30.0000    39.0000    10.0000    30.0000    30.0000    30.0000    86.2904     0.0000    -1.9995    -0.0010     0.0000   159.4104   -41.1799     3.6423     0.0424    -0.1208    -9.8486    14.7005    14.6907     0.0098     1.0000     1.0000     1.000
    117   133.4000      1.000  43364.000  13583.000      5.173    66.7975   -22.2454   -41.1655   119.9771     2.6000    -2.0000   -34.2897    39.0000    30.0000    30.0000    39.0000    10.0000    30.0000    30.0000    30.0000    86.2904     0.0000    -1.9995    -0.0010     0.0000   159.4104   -41.1799     3.6423     0.0476    -0.1208    -9.8487    14.7005    14.6907     0.0098     1.0000     1.0000     1.000
    118   133.3000      1.000  54770.000  13598.000      5.178    66.7975   -22.2454   -41.1655   119.9771     2.6000    -2.0000   -34.2897    39.0000    30.0000    30.0000    39.0000    10.0000    30.0000    30.0000    30.0000    86.2904     0.0000    -1.9995    -0.0010     0.0000   159.4104   -41.1799     3.6423     0.0529    -0.1208    -9.8487    14.7005    14.6907     0.0098     1.0000     1.0000     1.000
    119   133.2000      1.000  66545.000  13580.000      5.171    66.7975   -22.2454   -41.1655   119.9771     2.6000    -2.0000   -34.2897    39.0000    30.0000    30.0000    39.0000    10.0000    30.0000    30.0000    30.0000    86.2904     0.0000    -1.9995    -0.0010     0.0000   159.4104   -41.1799     3.6423     0.0581    -0.1208    -9.8487    14.7005    14.6907     0.0098     1.0000     1.0000     1.000
    120   133.1000      1.000  79578.000  13657.000      5.201    66.7975   -22.2454   -41.1655   119.9771     2.6000    -2.0000   -34.2897    39.0000    30.0000    30.0000    39.0000    10.0000    30.0000    30.0000    30.0000    86.2904     0.0000    -1.9995    -0.0010     0.0000   159.4104   -41.1799     3.6423     0.0633    -0.1208    -9.8487    14.7005    14.6907     0.0098     1.0000     1.0000     1.000
    121   133.0000      1.000  93250.000  13431.000      5.115    66.7975   -22.2454   -41.1655   119.9771     2.6000    -2.0000   -34.2897    39.0000    30.0000    30.0000    39.0000    10.0000    30.0000    30.0000    30.0000    86.2904     0.0000    -1.9995    -0.0010     0.0000   159.4104   -41.1799     3.6423     0.0686    -0.1208    -9.8487    14.7005    14.6907     0.0098     1.0000     1.0000     1.000
    122   132.9000      1.000 106707.000  13552.000      5.161    66.7975   -22.2454   -41.1655   119.9771     2.6000    -2.0000   -34.2897    39.0000    30.0000    30.0000    39.0000    10.0000    30.0000    30.0000    30.0000    86.2904     0.0000    -1.9995    -0.0010     0.0000   159.4104   -41.1799     3.6423     0.0738    -0.1208    -9.8487    14.7005    14.6907     0.0098     1.0000     1.0000     1.000
    123   132.8000      1.000 115962.000  13900.000      5.293    66.7975   -22.2454   -41.1655   119.9771     2.6000    -2.0000   -34.2897    39.0000    30.0000    30.0000    39.0000    10.0000    30.0000    30.0000    30.0000    86.2904     0.0000    -1.9995    -0.0010     0.0000   159.4104   -41.1799     3.6423     0.0790    -0.1208    -9.8486    14.7005    14.6907     0.0098     1.0000     1.0000     1.000
    124   132.7000      1.000 118996.000  13698.000      5.216    66.7975   -22.2454   -41.1655   119.9771     2.6000    -2.0000   -34.2897    39.0000    30.0000    30.0000    39.0000    10.0000    30.0000    30.0000    30.0000    86.2904     0.0000    -1.9995    -0.0010     0.0000   159.4104   -41.1799     3.6423     0.0843    -0.1208    -9.8484    14.7005    14.6907     0.0098     1.0000     1.0000     1.000
    125   132.6000      1.000 115352.000  13646.000      5.196    66.7975   -22.2454   -41.1655   119.9771     2.6000    -2.0000   -34.2897    39.0000    30.0000    30.0000    39.0000    10.0000    30.0000    30.0000    30.0000    86.2904     0.0000    -1.9995    -0.0010     0.0000   159.4104   -41.1799     3.6423     0.0895    -0.1208    -9.8483    14.7005    14.6907     0.0098     1.0000     1.0000     1.000
    126   132.5000      1.000 106665.000  13471.000      5.130    66.7975   -22.2454   -41.1655   119.9771     2.6000    -2.0000   -34.2897    39.0000    30.0000    30.0000    39.0000    10.0000    30.0000    30.0000    30.0000    86.2904     0.0000    -1.9995    -0.0010     0.0000   159.4104   -41.1799     3.6423     0.0947    -0.1208    -9.8481    14.7005    14.6907     0.0098     1.0000     1.0000     1.000
    127   132.4000      1.000  94129.000  13743.000      5.233    66.7975   -22.2454   -41.1655   119.9771     2.6000    -2.0000   -34.2897    39.0000    30.0000    30.0000    39.0000    10.0000    30.0000    30.0000    30.0000    86.2904     0.0000    -1.9995    -0.0010     0.0000   159.4104   -41.1799     3.6423     0.1000    -0.1208    -9.8479    14.7005    14.6907     0.0098     1.0000     1.0000     1.000
    128   132.3000      1.000  81055.000  13895.000      5.291    66.7975   -22.2454   -41.1655   119.9771     2.6000    -2.0000   -34.2897    39.0000    30.0000    30.0000    39.0000    10.0000    30.0000    30.0000    30.0000    86.2904     0.0000    -1.9995    -0.0010     0.0000   159.4104   -41.1799     3.6423     0.1052    -0.1208    -9.8477    14.7005    14.6907     0.0098     1.0000     1.0000     1.000
    129   132.2000      1.000  68460.000  13451.000      5.122    66.7975   -22.2454   -41.1655   119.9771     2.6000    -2.0000   -34.2897    39.0000    30.0000    30.0000    39.0000    10.0000    30.0000    30.0000    30.0000    86.2904     0.0000    -1.9995    -0.0010     0.0000   159.4104   -41.1799     3.6423     0.1104    -0.1208    -9.8474    14.7005    14.6907     0.0098     1.0000     1.0000     1.000
    130   132.1000      1.000  58624.000  13663.000      5.203    66.7975   -22.2454   -41.1655   119.9771     2.6000    -2.0000   -34.2897    39.0000    30.0000    30.0000    39.0000    10.0000    30.0000    30.0000    30.0000    86.2904     0.0000    -1.9995    -0.0010     0.0000   159.4104   -41.1799     3.6423     0.1157    -0.1208    -9.8471    14.7005    14.6907     0.0098     1.0000     1.0000     1.000
    131   132.0000      1.000  51436.000  13442.000      5.119    66.7975   -22.2454   -41.1655   119.9771     2.6000    -2.0000   -34.2897    39.0000    30.0000    30.0000    39.0000    10.0000    30.0000    30.0000    30.0000    86.2904     0.0000    -1.9995    -0.0010     0.0000   159.4104   -41.1799     3.6423     0.1209    -0.1208    -9.8467    14.7005    14.6907     0.0098     1.0000     1.0000     1.000
    132   131.9000      1.000  46721.000  13541.000      5.157    66.7975   -22.2454   -41.1655   119.9771     2.6000    -2.0000   -34.2897    39.0000    30.0000    30.0000    39.0000    10.0000    30.0000    30.0000    30.0000    86.2904     0.0000    -1.9995    -0.0010     0.0000   159.4104   -41.1799     3.6423     0.1261    -0.1208    -9.8464    14.7005    14.6907     0.0098     1.0000     1.0000     1.000
    133   131.8000      1.000  43392.000  13324.000      5.074    66.7975   -22.2454   -41.1655   119.9771     2.6000    -2.0000   -34.2897    39.0000    30.0000    30.0000    39.0000    10.0000    30.0000    30.0000    30.0000    86.2904     0.0000    -1.9995    -0.0010     0.0000   159.4104   -41.1799     3.6423     0.1314    -0.1208    -9.8460    14.7005    14.6907     0.0098     1.0000     1.0000     1.000
    134   131.7000      1.000  41237.000  13628.000      5.190    66.7975   -22.2454   -41.1655   119.9771     2.6000    -2.0000   -34.2897    39.0000    30.0000    30.0000    39.0000    10.0000    30.0000    30.0000    30.0000    86.2904     0.0000    -1.9995    -0.0010     0.0000   159.4104   -41.1799     3.6423     0.1366    -0.1208    -9.8456    14.7005    14.6907     0.0098     1.0000     1.0000     1.000
    135   131.6000      1.000  39785.000  13709.000      5.220    66.7975   -22.2454   -41.1655   119.9771     2.6000    -2.0000   -34.2897    39.0000    30.0000    30.0000    39.0000    10.0000    30.0000    30.0000    30.0000    86.2904     0.0000    -1.9995    -0.0010     0.0000   159.4104   -41.1799     3.6423     0.1418    -0.1208    -9.8451    14.7005    14.6907     0.0098     1.0000     1.0000     1.000
    136   131.5000      1.000  38509.000  13394.000      5.101    66.7975   -22.2454   -41.1655   119.9771     2.6000    -2.0000   -34.2897    39.0000    30.0000    30.0000    39.0000    10.0000    30.0000    30.0000    30.0000    86.2904     0.0000    -1.9995    -0.0010     0.0000   159.4104   -41.1799     3.6423     0.1471    -0.1208    -9.8446    14.7005    14.6907     0.0098     1.0000     1.0000     1.000
    137   131.4000      1.000  37517.000  13483.000      5.134    66.7975   -22.2454   -41.1655   119.9771     2.6000    -2.0000   -34.2897    39.0000    30.0000    30.0000    39.0000    10.0000    30.0000    30.0000    30.0000    86.2904     0.0000    -1.9995    -0.0010     0.0000   159.4104   -41.1799     3.6423     0.1523    -0.1208    -9.8441    14.7005    14.6907     0.0098     1.0000     1.0000     1.000
    138   131.3000      1.000  36987.000  13431.000      5.115    66.7975   -22.2454   -41.1655   119.9771     2.6000    -2.0000   -34.2897    39.0000    30.0000    30.0000    39.0000    10.0000    30.0000    30.0000    30.0000    86.2904     0.0000    -1.9995    -0.0010     0.0000   159.4104   -41.1799     3.6423     0.1575    -0.1208    -9.8436    14.7005    14.6907     0.0098     1.0000     1.0000     1.000
    139   131.2000      1.000  36831.000  13472.000      5.130    66.7975   -22.2454   -41.1655   119.9771     2.6000    -2.0000   -34.2897    39.0000    30.0000    30.0000    39.0000    10.0000    30.0000    30.0000    30.0000    86.2904     0.0000    -1.9995    -0.0010     0.0000   159.4104   -41.1799     3.6423     0.1627    -0.1208    -9.8430    14.7005    14.6907     0.0098     1.0000     1.0000     1.000
    140   131.1000      1.000  37071.000  13578.000      5.171    66.7975   -22.2454   -41.1655   119.9771     2.6000    -2.0000   -34.2897    39.0000    30.0000    30.0000    39.0000    10.0000    30.0000    30.0000    30.0000    86.2904     0.0000    -1.9995    -0.0010     0.0000   159.4104   -41.1799     3.6423     0.1680    -0.1208    -9.8424    14.7005    14.6907     0.0098     1.0000     1.0000     1.000
    141   131.0000      1.000  37263.000  13353.000      5.085    66.7975   -22.2454   -41.1655   119.9771     2.6000    -2.0000   -34.2897    39.0000    30.0000    30.0000    39.0000    10.0000    30.0000    30.0000    30.0000    86.2904     0.0000    -1.9995    -0.0010     0.0000   159.4104   -41.1799     3.6423     0.1732    -0.1208    -9.8418    14.7005    14.6907     0.0098     1.0000     1.0000     1.000
    142   130.9000      1.000  38199.000  13407.000      5.105    66.7975   -22.2454   -41.1655   119.9771     2.6000    -2.0000   -34.2897    39.0000    30.0000    30.0000    39.0000    10.0000    30.0000    30.0000    30.0000    86.2904     0.0000    -1.9995    -0.0010     0.0000   159.4104   -41.1799     3.6423     0.1784    -0.1208    -9.8411    14.7005    14.6907     0.0098     1.0000     1.0000     1.000
    143   130.8000      1.000  39618.000  13359.000      5.087    66.7975   -22.2454   -41.1655   119.9771     2.6000    -2.0000   -34.2897    39.0000    30.0000    30.0000    39.0000    10.0000    30.0000    30.0000    30.0000    86.2904     0.0000    -1.9995    -0.0010     0.0000   159.4104   -41.1799     3.6423     0.1837    -0.1207    -9.8404    14.7005    14.6907     0.0098     1.0000     1.0000     1.000
    144   130.7000      1.000  42639.000  13403.000      5.104    66.7975   -22.2454   -41.1655   119.9771     2.6000    -2.0000   -34.2897    39.0000    30.0000    30.0000    39.0000    10.0000    30.0000    30.0000    30.0000    86.2904     0.0000    -1.9995    -0.0010     0.0000   159.4104   -41.1799     3.6423     0.1889    -0.1207    -9.8397    14.7005    14.6907     0.0098     1.0000     1.0000     1.000
    145   130.6000      1.000  50263.000  13604.000      5.181    66.7975   -22.2454   -41.1655   119.9771     2.6000    -2.0000   -34.2897    39.0000    30.0000    30.0000    39.0000    10.0000    30.0000    30.0000    30.0000    86.2904     0.0000    -1.9995    -0.0010     0.0000   159.4104   -41.1799     3.6423     0.1941    -0.1207    -9.8390    14.7005    14.6907     0.0098     1.0000     1.0000     1.000
    146   130.5000      1.000  63308.000  13595.000      5.177    66.7975   -22.2454   -41.1655   119.9771     2.6000    -2.0000   -34.2897    39.0000    30.0000    30.0000    39.0000    10.0000    30.0000    30.0000    30.0000    86.2904     0.0000    -1.9995    -0.0010     0.0000   159.4104   -41.1799     3.6423     0.1993    -0.1207    -9.8382    14.7005    14.6907     0.0098     1.0000     1.0000     1.000
    147   130.4000      1.000  78556.000  13715.000      5.223    66.7975   -22.2454   -41.1655   119.9771     2.6000    -2.0000   -34.2897    39.0000    30.0000    30.0000    39.0000    10.0000    30.0000    30.0000    30.0000    86.2904     0.0000    -1.9995    -0.0010     0.0000   159.4104   -41.1799     3.6423     0.2046    -0.1207    -9.8374    14.7005    14.6907     0.0098     1.0000     1.0000     1.000
    148   130.3000      1.000  90602.000  13653.000      5.199    66.7975   -22.2454   -41.1655   119.9771     2.6000    -2.0000   -34.2897    39.0000    30.0000    30.0000    39.0000    10.0000    30.0000    30.0000    30.0000    86.2904     0.0000    -1.9995    -0.0010     0.0000   159.4104   -41.1799     3.6423     0.2098    -0.1207    -9.8365    14.7005    14.6907     0.0098     1.0000     1.0000     1.000
    149   130.2000      1.000  93563.000  13796.000      5.254    66.7975   -22.2454   -41.1655   119.9771     2.6000    -2.0000   -34.2897    39.0000    30.0000    30.0000    39.0000    10.0000    30.0000    30.0000    30.0000    86.2904     0.0000    -1.9995    -0.0010     0.0000   159.4104   -41.1799     3.6423     0.2150    -0.1207    -9.8357    14.7005    14.6907     0.0098     1.0000     1.0000     1.000
    150   130.1000      1.000  84177.000  13586.000      5.174    66.7975   -22.2454   -41.1655   119.9771     2.6000    -2.0000   -34.2897    39.0000    30.0000    30.0000    39.0000    10.0000    30.0000    30.0000    30.0000    86.2904     0.0000    -1.9995    -0.0010     0.0000   159.4104   -41.1799     3.6423     0.2202    -0.1207    -9.8348    14.7005    14.6907     0.0098     1.0000     1.0000     1.000
    151   130.0000      1.000  66608.000  13609.000      5.182    66.7975   -22.2454   -41.1655   119.9771     2.6000    -2.0000   -34.2897    39.0000    30.0000    30.0000    39.0000    10.0000    30.0000    30.0000    30.0000    86.2904     0.0000    -1.9995    -0.0010     0.0000   159.4104   -41.1799     3.6423     0.2254    -0.1207    -9.8338    14.7005    14.6907     0.0098     1.0000     1.0000     1.000
    152   129.9000      1.000  48668.000  13477.000      5.132    66.7975   -22.2454   -41.1655   119.9771     2.6000    -2.0000   -34.2897    39.0000    30.0000    30.0000    39.0000    10.0000    30.0000    30.0000    30.0000    86.2904     0.0000    -1.9995    -0.0010     0.0000   159.4104   -41.1799     3.6423     0.2307    -0.1207    -9.8329    14.7005    14.6907     0.0098     1.0000     1.0000     1.000
    153   129.8000      1.000  33799.000  13375.000      5.093    66.7975   -22.2454   -41.1655   119.9771     2.6000    -2.0000   -34.2897    39.0000    30.0000    30.0000    39.0000    10.0000    30.0000    30.0000    30.0000    86.2904     0.0000    -1.9995    -0.0010     0.0000   159.4104   -41.1799     3.6423     0.2359    -0.1206    -9.8319    14.7005    14.6907     0.0098     1.0000     1.0000     1.000
    154   129.7000      1.000  23176.000  13442.000      5.119    66.7975   -22.2454   -41.1655   119.9771     2.6000    -2.0000   -34.2897    39.0000    30.0000    30.0000    39.0000    10.0000    30.0000    30.0000    30.0000    86.2904     0.0000    -1.9995    -0.0010     0.0000   159.4104   -41.1799     3.6423     0.2411    -0.1206    -9.8308    14.7005    14.6907     0.0098     1.0000     1.0000     1.000
    155   129.6000      1.000  17132.000  13196.000      5.025    66.7975   -22.2454   -41.1655   119.9771     2.6000    -2.0000   -34.2897    39.0000    30.0000    30.0000    39.0000    10.0000    30.0000    30.0000    30.0000    86.2904     0.0000    -1.9995    -0.0010     0.0000   159.4104   -41.1799     3.6423     0.2463    -0.1206    -9.8298    14.7005    14.6907     0.0098     1.0000     1.0000     1.000
    156   129.5000      1.000  13292.000  13375.000      5.093    66.7975   -22.2454   -41.1655   119.9771     2.6000    -2.0000   -34.2897    39.0000    30.0000    30.0000    39.0000    10.0000    30.0000    30.0000    30.0000    86.2904     0.0000    -1.9995    -0.0010     0.0000   159.4104   -41.1799     3.6423     0.2515    -0.1206    -9.8287    14.7005    14.6907     0.0098     1.0000     1.0000     1.000
    157   129.4000      1.000  11298.000  13504.000      5.142    66.7975   -22.2454   -41.1655   119.9771     2.6000    -2.0000   -34.2897    39.0000    30.0000    30.0000    39.0000    10.0000    30.0000    30.0000    30.0000    86.2904     0.0000    -1.9995    -0.0010     0.0000   159.4104   -41.1799     3.6423     0.2568    -0.1206    -9.8276    14.7005    14.6907     0.0098     1.0000     1.0000     1.000
    158   129.3000      1.000   9968.000  13514.000      5.146    66.7975   -22.2454   -41.1655   119.9771     2.6000    -2.0000   -34.2897    39.0000    30.0000    30.0000    39.0000    10.0000    30.0000    30.0000    30.0000    86.2904     0.0000    -1.9995    -0.0010     0.0000   159.4104   -41.1799     3.6423     0.2620    -0.1206    -9.8265    14.7005    14.6907     0.0098     1.0000     1.0000     1.000
    159   129.2000      1.000   9089.000  13382.000      5.096    66.7975   -22.2454   -41.1655   119.9771     2.6000    -2.0000   -34.2897    39.0000    30.0000    30.0000    39.0000    10.0000    30.0000    30.0000    30.0000    86.2904     0.0000    -1.9995    -0.0010     0.0000   159.4104   -41.1799     3.6423     0.2672    -0.1206    -9.8253    14.7005    14.6907     0.0098     1.0000     1.0000     1.000
    160   129.1000      1.000   8210.000  13402.000      5.104    66.7975   -22.2454   -41.1655   119.9771     2.6000    -2.0000   -34.2897    39.0000    30.0000    30.0000    39.0000    10.0000    30.0000    30.0000    30.0000    86.2904     0.0000    -1.9995    -0.0010     0.0000   159.4104   -41.1799     3.6423     0.2724    -0.1205    -9.8241    14.7005    14.6907     0.0098     1.0000     1.0000     1.000
    161   129.0000      1.000   7519.000  13433.000      5.115    66.7975   -22.2454   -41.1655   119.9771     2.6000    -2.0000   -34.2897    39.0000    30.0000    30.0000    39.0000    10.0000    30.0000    30.0000    30.0000    86.2904     0.0000    -1.9995    -0.0010     0.0000   159.4104   -41.1799     3.6423     0.2776    -0.1205    -9.8229    14.7005    14.6907     0.0098     1.0000     1.0000     1.000
    162   128.9000      1.000   6811.000  13355.000      5.086    66.7975   -22.2454   -41.1655   119.9771     2.6000    -2.0000   -34.2897    39.0000    30.0000    30.0000    39.0000    10.0000    30.0000    30.0000    30.0000    86.2904     0.0000    -1.9995    -0.0010     0.0000   159.4104   -41.1799     3.6423     0.2828    -0.1205    -9.8216    14.7005    14.6907     0.0098     1.0000     1.0000     1.000
    163   128.8000      1.000   6350.000  13446.000      5.120    66.7975   -22.2454   -41.1655   119.9771     2.6000    -2.0000   -34.2897    39.0000    30.0000    30.0000    39.0000    10.0000    30.0000    30.0000    30.0000    86.2904     0.0000    -1.9995    -0.0010     0.0000   159.4104   -41.1799     3.6423     0.2881    -0.1205    -9.8203    14.7005    14.6907     0.0098     1.0000     1.0000     1.000
    164   128.7000      1.000   6217.000  13395.000      5.101    66.7975   -22.2454   -41.1655   119.9771     2.6000    -2.0000   -34.2897    39.0000    30.0000    30.0000    39.0000    10.0000    30.0000    30.0000    30.0000    86.2904     0.0000    -1.9995    -0.0010     0.0000   159.4104   -41.1799     3.6423     0.2933    -0.1205    -9.8190    14.7005    14.6907     0.0098     1.0000     1.0000     1.000
    165   128.6000      1.000   5424.000  13360.000      5.088    66.7975   -22.2454   -41.1655   119.9771     2.6000    -2.0000   -34.2897    39.0000    30.0000    30.0000    39.0000    10.0000    30.0000    30.0000    30.0000    86.2904     0.0000    -1.9995    -0.0010     0.0000   159.4104   -41.1799     3.6423     0.2985    -0.1205    -9.8176    14.7005    14.6907     0.0098     1.0000     1.0000     1.000
    166   128.5000      1.000   5191.000  13551.000      5.160    66.7975   -22.2454   -41.1655   119.9771     2.6000    -2.0000   -34.2897    39.0000    30.0000    30.0000    39.0000    10.0000    30.0000    30.0000    30.0000    86.2904     0.0000    -1.9995    -0.0010     0.0000   159.4104   -41.1799     3.6423     0.3037    -0.1205    -9.8163    14.7005    14.6907     0.0098     1.0000     1.0000     1.000
    167   128.4000      1.000   5101.000  13412.000      5.107    66.7975   -22.2454   -41.1655   119.9771     2.6000    -2.0000   -34.2897    39.0000    30.0000    30.0000    39.0000    10.0000    30.0000    30.0000    30.0000    86.2904     0.0000    -1.9995    -0.0010     0.0000   159.4104   -41.1799     3.6423     0.3089    -0.1204    -9.8148    14.7005    14.6907     0.0098     1.0000     1.0000     1.000
    168   128.3000      1.000   6297.000  13433.000      5.115    66.7975   -22.2454   -41.1655   119.9771     2.6000    -2.0000   -34.2897    39.0000    30.0000    30.0000    39.0000    10.0000    30.0000    30.0000    30.0000    86.2904     0.0000    -1.9995    -0.0010     0.0000   159.4104   -41.1799     3.6423     0.3141    -0.1204    -9.8134    14.7005    14.6907     0.0098     1.0000     1.0000     1.000
    169   128.2000      1.000   8469.000  13504.000      5.142    66.7975   -22.2454   -41.1655   119.9771     2.6000    -2.0000   -34.2897    39.0000    30.0000    30.0000    39.0000    10.0000    30.0000    30.0000    30.0000    86.2904     0.0000    -1.9995    -0.0010     0.0000   159.4104   -41.1799     3.6423     0.3193    -0.1204    -9.8119    14.7005    14.6907     0.0098     1.0000     1.0000     1.000
    170   128.1000      1.000  11252.000  13490.000      5.137    66.7975   -22.2454   -41.1655   119.9771     2.6000    -2.0000   -34.2897    39.0000    30.0000    30.0000    39.0000    10.0000    30.0000    30.0000    30.0000    86.2904     0.0000    -1.9995    -0.0010     0.0000   159.4104   -41.1799     3.6423     0.3245    -0.1204    -9.8104    14.7005    14.6907     0.0098     1.0000     1.0000     1.000
    171   128.0000      1.000  13430.000  13574.000      5.169    66.7975   -22.2454   -41.1655   119.9771     2.6000    -2.0000   -34.2897    39.0000    30.0000    30.0000    39.0000    10.0000    30.0000    30.0000    30.0000    86.2904     0.0000    -1.9995    -0.0010     0.0000   159.4104   -41.1799     3.6423     0.3297    -0.1204    -9.8089    14.7005    14.6907     0.0098     1.0000     1.0000     1.000
    172   127.9000      1.000  13772.000  13612.000      5.184    66.7975   -22.2454   -41.1655   119.9771     2.6000    -2.0000   -34.2897    39.0000    30.0000    30.0000    39.0000    10.0000    30.0000    30.0000    30.0000    86.2904     0.0000    -1.9995    -0.0010     0.0000   159.4104   -41.1799     3.6423     0.3349    -0.1203    -9.8073    14.7005    14.6907     0.0098     1.0000     1.0000     1.000
    173   127.8000      1.000  11988.000  13272.000      5.054    66.7975   -22.2454   -41.1655   119.9771     2.6000    -2.0000   -34.2897    39.0000    30.0000    30.0000    39.0000    10.0000    30.0000    30.0000    30.0000    86.2904     0.0000    -1.9995    -0.0010     0.0000   159.4104   -41.1799     3.6423     0.3401    -0.1203    -9.8058    14.7005    14.6907     0.0098     1.0000     1.0000     1.000
    174   127.7000      1.000   9149.000  13469.000      5.129    66.7975   -22.2454   -41.1655   119.9771     2.6000    -2.0000   -34.2897    39.0000    30.0000    30.0000    39.0000    10.0000    30.0000    30.0000    30.0000    86.2904     0.0000    -1.9995    -0.0010     0.0000   159.4104   -41.1799     3.6423     0.3453    -0.1203    -9.8041    14.7005    14.6907     0.0098     1.0000     1.0000     1.000
    175   127.6000      1.000   6778.000  13418.000      5.110    66.7975   -22.2454   -41.1655   119.9771     2.6000    -2.0000   -34.2897    39.0000    30.0000    30.0000    39.0000    10.0000    30.0000    30.0000    30.0000    86.2904     0.0000    -1.9995    -0.0010     0.0000   159.4104   -41.1799     3.6423     0.3505    -0.1203    -9.8025    14.7005    14.6907     0.0098     1.0000     1.0000     1.000
    176   127.5000      1.000   4600.000  13451.000      5.122    66.7975   -22.2454   -41.1655   119.9771     2.6000    -2.0000   -34.2897    39.0000    30.0000    30.0000    39.0000    10.0000    30.0000    30.0000    30.0000    86.2904     0.0000    -1.9995    -0.0010     0.0000   159.4104   -41.1799     3.6423     0.3557    -0.1203    -9.8008    14.7005    14.6907     0.0098     1.0000     1.0000     1.000
    177   127.4000      1.000   3608.000  13460.000      5.126    66.7975   -22.2454   -41.1655   119.9771     2.6000    -2.0000   -34.2897    39.0000    30.0000    30.0000    39.0000    10.0000    30.0000    30.0000    30.0000    86.2904     0.0000    -1.9995    -0.0010     0.0000   159.4104   -41.1799     3.6423     0.3609    -0.1202    -9.7991    14.7005    14.6907     0.0098     1.0000     1.0000     1.000
    178   127.3000      1.000   2991.000  13294.000      5.062    66.7975   -22.2454   -41.1655   119.9771     2.6000    -2.0000   -34.2897    39.0000    30.0000    30.0000    39.0000    10.0000    30.0000    30.0000    30.0000    86.2904     0.0000    -1.9995    -0.0010     0.0000   159.4104   -41.1799     3.6423     0.3661    -0.1202    -9.7974    14.7005    14.6907     0.0098     1.0000     1.0000     1.000
    179   127.2000      1.000   2657.000  13503.000      5.142    66.7975   -22.2454   -41.1655   119.9771     2.6000    -2.0000   -34.2897    39.0000    30.0000    30.0000    39.0000    10.0000    30.0000    30.0000    30.0000    86.2904     0.0000    -1.9995    -0.0010     0.0000   159.4104   -41.1799     3.6423     0.3713    -0.1202    -9.7956    14.7005    14.6907     0.0098     1.0000     1.0000     1.000
    180   127.1000      1.000   2310.000  13388.000      5.098    66.7975   -22.2454   -41.1655   119.9771     2.6000    -2.0000   -34.2897    39.0000    30.0000    30.0000    39.0000    10.0000    30.0000    30.0000    30.0000    86.2904     0.0000    -1.9995    -0.0010     0.0000   159.4104   -41.1799     3.6423     0.3765    -0.1202    -9.7938    14.7005    14.6907     0.0098     1.0000     1.0000     1.000
    181   127.0000      1.000   2112.000  13484.000      5.135    66.7975   -22.2454   -41.1655   119.9771     2.6000    -2.0000   -34.2897    39.0000    30.0000    30.0000    39.0000    10.0000    30.0000    30.0000    30.0000    86.2904     0.0000    -1.9995    -0.0010     0.0000   159.4104   -41.1799     3.6423     0.3817    -0.1202    -9.7920    14.7005    14.6907     0.0098     1.0000     1.0000     1.000
    182   126.9000      1.000   1961.000  13452.000      5.123    66.7975   -22.2454   -41.1655   119.9771     2.6000    -2.0000   -34.2897    39.0000    30.0000    30.0000    39.0000    10.0000    30.0000    30.0000    30.0000    86.2904     0.0000    -1.9995    -0.0010     0.0000   159.4104   -41.1799     3.6423     0.3869    -0.1201    -9.7901    14.7005    14.6907     0.0098     1.0000     1.0000     1.000
    183   126.8000      1.000   2010.000  13387.000      5.098    66.7975   -22.2454   -41.1655   119.9771     2.6000    -2.0000   -34.2897    39.0000    30.0000    30.0000    39.0000    10.0000    30.0000    30.0000    30.0000    86.2904     0.0000    -1.9995    -0.0010     0.0000   159.4104   -41.1799     3.6423     0.3921    -0.1201    -9.7882    14.7005    14.6907     0.0098     1.0000     1.0000     1.000
    184   126.7000      1.000   1962.000  13628.000      5.190    66.7975   -22.2454   -41.1655   119.9771     2.6000    -2.0000   -34.2897    39.0000    30.0000    30.0000    39.0000    10.0000    30.0000    30.0000    30.0000    86.2904     0.0000    -1.9995    -0.0010     0.0000   159.4104   -41.1799     3.6423     0.3973    -0.1201    -9.7863    14.7005    14.6907     0.0098     1.0000     1.0000     1.000
    185   126.6000      1.000   1891.000  13381.000      5.096    66.7975   -22.2454   -41.1655   119.9771     2.6000    -2.0000   -34.2897    39.0000    30.0000    30.0000    39.0000    10.0000    30.0000    30.0000    30.0000    86.2904     0.0000    -1.9995    -0.0010     0.0000   159.4104   -41.1799     3.6423     0.4025    -0.1201    -9.7844    14.7005    14.6907     0.0098     1.0000     1.0000     1.000
    186   126.5000      1.000   1923.000  13516.000      5.147    66.7975   -22.2454   -41.1655   119.9771     2.6000    -2.0000   -34.2897    39.0000    30.0000    30.0000    39.0000    10.0000    30.0000    30.0000    30.0000    86.2904     0.0000    -1.9995    -0.0010     0.0000   159.4104   -41.1799     3.6423     0.4077    -0.1200    -9.7824    14.7005    14.6907     0.0098     1.0000     1.0000     1.000
    187   126.4000      1.000   1801.000  13564.000      5.165    66.7975   -22.2454   -41.1655   119.9771     2.6000    -2.0000   -34.2897    39.0000    30.0000    30.0000    39.0000    10.0000    30.0000    30.0000    30.0000    86.2904     0.0000    -1.9995    -0.0010     0.0000   159.4104   -41.1799     3.6423     0.4129    -0.1200    -9.7804    14.7005    14.6907     0.0098     1.0000     1.0000     1.000
    188   126.3000      1.000   1810.000  13297.000      5.064    66.7975   -22.2454   -41.1655   119.9771     2.6000    -2.0000   -34.2897    39.0000    30.0000    30.0000    39.0000    10.0000    30.0000    30.0000    30.0000    86.2904     0.0000    -1.9995    -0.0010     0.0000   159.4104   -41.1799     3.6423     0.4180    -0.1200    -9.7783    14.7005    14.6907     0.0098     1.0000     1.0000     1.000
    189   126.2000      1.000   1635.000  13209.000      5.030    66.7975   -22.2454   -41.1655   119.9771     2.6000    -2.0000   -34.2897    39.0000    30.0000    30.0000    39.0000    10.0000    30.0000    30.0000    30.0000    86.2904     0.0000    -1.9995    -0.0010     0.0000   159.4104   -41.1799     3.6423     0.4232    -0.1200    -9.7763    14.7005    14.6907     0.0098     1.0000     1.0000     1.000
    190   126.1000      1.000   1546.000  13526.000      5.151    66.7975   -22.2454   -41.1655   119.9771     2.6000    -2.0000   -34.2897    39.0000    30.0000    30.0000    39.0000    10.0000    30.0000    30.0000    30.0000    86.2904     0.0000    -1.9995    -0.0010     0.0000   159.4104   -41.1799     3.6423     0.4284    -0.1199    -9.7742    14.7005    14.6907     0.0098     1.0000     1.0000     1.000
    191   126.0000      1.000   1389.000  13432.000      5.115    66.7975   -22.2454   -41.1655   119.9771     2.6000    -2.0000   -34.2897    39.0000    30.0000    30.0000    39.0000    10.0000    30.0000    30.0000    30.0000    86.2904     0.0000    -1.9995    -0.0010     0.0000   159.4104   -41.1799     3.6423     0.4336    -0.1199    -9.7720    14.7005    14.6907     0.0098     1.0000     1.0000     1.000
    192   125.9000      1.000   1458.000  13423.000      5.112    66.7975   -22.2454   -41.1655   119.9771     2.6000    -2.0000   -34.2897    39.0000    30.0000    30.0000    39.0000    10.0000    30.0000    30.0000    30.0000    86.2904     0.0000    -1.9995    -0.0010     0.0000   159.4104   -41.1799     3.6423     0.4388    -0.1199    -9.7699    14.7005    14.6907     0.0098     1.0000     1.0000     1.000
    193   125.8000      1.000   1364.000  13387.000      5.098    66.7975   -22.2454   -41.1655   119.9771     2.6000    -2.0000   -34.2897    39.0000    30.0000    30.0000    39.0000    10.0000    30.0000    30.0000    30.0000    86.2904     0.0000    -1.9995    -0.0010     0.0000   159.4104   -41.1799     3.6423     0.4440    -0.1199    -9.7677    14.7005    14.6907     0.0098     1.0000     1.0000     1.000
    194   125.7000      1.000   1367.000  13521.000      5.149    66.7975   -22.2454   -41.1655   119.9771     2.6000    -2.0000   -34.2897    39.0000    30.0000    30.0000    39.0000    10.0000    30.0000    30.0000    30.0000    86.2904     0.0000    -1.9995    -0.0010     0.0000   159.4104   -41.1799     3.6423     0.4491    -0.1198    -9.7655    14.7005    14.6907     0.0098     1.0000     1.0000     1.000
    195   125.6000      1.000   1363.000  13453.000      5.123    66.7975   -22.2454   -41.1655   119.9771     2.6000    -2.0000   -34.2897    39.0000    30.0000    30.0000    39.0000    10.0000    30.0000    30.0000    30.0000    86.2904     0.0000    -1.9995    -0.0010     0.0000   159.4104   -41.1799     3.6423     0.4543    -0.1198    -9.7632    14.7005    14.6907     0.0098     1.0000     1.0000     1.000
    196   125.5000      1.000   1398.000  13480.000      5.133    66.7975   -22.2454   -41.1655   119.9771     2.6000    -2.0000   -34.2897    39.0000    30.0000    30.0000    39.0000    10.0000    30.0000    30.0000    30.0000    86.2904     0.0000    -1.9995    -0.0010     0.0000   159.4104   -41.1799     3.6423     0.4595    -0.1198    -9.7610    14.7005    14.6907     0.0098     1.0000     1.0000     1.000
    197   125.4000      1.000   1393.000  13479.000      5.133    66.7975   -22.2454   -41.1655   119.9771     2.6000    -2.0000   -34.2897    39.0000    30.0000    30.0000    39.0000    10.0000    30.0000    30.0000    30.0000    86.2904     0.0000    -1.9995    -0.0010     0.0000   159.4104   -41.1799     3.6423     0.4647    -0.1197    -9.7587    14.7005    14.6907     0.0098     1.0000     1.0000     1.000
    198   125.3000      1.000   1408.000  13418.000      5.110    66.7975   -22.2454   -41.1655   119.9771     2.6000    -2.0000   -34.2897    39.0000    30.0000    30.0000    39.0000    10.0000    30.0000    30.0000    30.0000    86.2904     0.0000    -1.9995    -0.0010     0.0000   159.4104   -41.1799     3.6423     0.4698    -0.1197    -9.7563    14.7005    14.6907     0.0098     1.0000     1.0000     1.000
    199   125.2000      1.000   1395.000  13289.000      5.061    66.7975   -22.2454   -41.1655   119.9771     2.6000    -2.0000   -34.2897    39.0000    30.0000    30.0000    39.0000    10.0000    30.0000    30.0000    30.0000    86.2904     0.0000    -1.9995    -0.0010     0.0000   159.4104   -41.1799     3.6423     0.4750    -0.1197    -9.7540    14.7005    14.6907     0.0098     1.0000     1.0000     1.000
    200   125.1000      1.000   1423.000  13578.000      5.171    66.7975   -22.2454   -41.1655   119.9771     2.6000    -2.0000   -34.2897    39.0000    30.0000    30.0000    39.0000    10.0000    30.0000    30.0000    30.0000    86.2904     0.0000    -1.9995    -0.0010     0.0000   159.4104   -41.1799     3.6423     0.4802    -0.1197    -9.7516    14.7005    14.6907     0.0098     1.0000     1.0000     1.000
    201   125.0000      1.000   1497.000  13420.000      5.110    66.7975   -22.2454   -41.1655   119.9771     2.6000    -2.0000   -34.2897    39.0000    30.0000    30.0000    39.0000    10.0000    30.0000    30.0000    30.0000    86.2904     0.0000    -1.9995    -0.0010     0.0000   159.4104   -41.1799     3.6423     0.4853    -0.1196    -9.7491    14.7005    14.6907     0.0098     1.0000     1.0000     1.000
# Sum of Counts = 3035116
# Center of Mass = 132.012910+/-0.107171
# Full Width Half-Maximum = 4.689489+/-0.016394
# 2:24:08 PM  9/5/2017   scan completed.
