# scan = 13
# date = 9/5/2017
# time = 1:46:06 PM
# proposal = 19739
# experiment = Separation of phonon and magnetic scattering near the Majorana mode in Î±-RuCl3: feasibility study
# experiment_number = 600
# command = scanrel s1 5 -5 0.5
# builtin_command = scan s1 @(s1)+5 @(s1)+-5 0.500000
# users = Paula Kelley
# local_contact = 
# scan_title = Co-Alignment on post RT 3 0 0 postion
# monochromator = PG002
# analyzer = Pg002
# sense = -+-
# collimation = 48-40-40-120
# samplename = RuCl3
# sampletype = crystal
# samplemosaic = 30.000000
# latticeconstants = 5.975000,5.975000,17.000000,90.000000,90.000000,120.000000
# ubmatrix = -0.193255,-0.096628,0.000000,-0.000000,0.000000,-0.058824,0.000000,-0.167364,0.000000
# mode = 0
# plane_normal = 0.000000,0.000000,1.000000
# ubconf = UB05Sep2017_10850PM.ini
# preset_type = normal 
# preset_channel = time
# preset_value = 1.000000
# def_x = s1
# def_y = detector
# col_headers = 
#   Pt.         s1       time   detector    monitor        mcu focal_length         m1         m2   mcrystal       marc     mtrans     mfocus        bab        bal        bar        bat        bbb        bbl        bbr        bbt         s2        sgl        sgu        stl        stu         a1         a2          q          h          k          l         ei         ef          e   cold_tip    tsample       temp
      1   136.0002      1.000  18272.000  14033.000      5.344    66.7975   -22.2454   -41.1655   119.9771     2.6000    -2.0000   -34.2897    39.0000    30.0000    30.0000    39.0000    10.0000    30.0000    30.0000    30.0000    86.2904     0.0000    -1.9995    -0.0010     0.0000   159.4104   -41.1799     3.6423    -0.0885    -0.1207    -9.8366    14.7005    14.6907     0.0098     1.0000     1.0000     1.000
      2   135.5001      1.000  29204.000  13866.000      5.280    66.7975   -22.2454   -41.1655   119.9771     2.6000    -2.0000   -34.2897    39.0000    30.0000    30.0000    39.0000    10.0000    30.0000    30.0000    30.0000    86.2904     0.0000    -1.9995    -0.0010     0.0000   159.4104   -41.1799     3.6423    -0.0623    -0.1207    -9.8405    14.7005    14.6907     0.0098     1.0000     1.0000     1.000
      3   135.0000      1.000  84694.000  14072.000      5.359    66.7975   -22.2454   -41.1655   119.9771     2.6000    -2.0000   -34.2897    39.0000    30.0000    30.0000    39.0000    10.0000    30.0000    30.0000    30.0000    86.2904     0.0000    -1.9995    -0.0010     0.0000   159.4104   -41.1799     3.6423    -0.0362    -0.1208    -9.8436    14.7005    14.6907     0.0098     1.0000     1.0000     1.000
      4   134.5000      1.000 123922.000  13893.000      5.291    66.7975   -22.2454   -41.1655   119.9771     2.6000    -2.0000   -34.2897    39.0000    30.0000    30.0000    39.0000    10.0000    30.0000    30.0000    30.0000    86.2904     0.0000    -1.9995    -0.0010     0.0000   159.4104   -41.1799     3.6423    -0.0100    -0.1208    -9.8460    14.7005    14.6907     0.0098     1.0000     1.0000     1.000
      5   134.0000      1.000  87804.000  14056.000      5.353    66.7975   -22.2454   -41.1655   119.9771     2.6000    -2.0000   -34.2897    39.0000    30.0000    30.0000    39.0000    10.0000    30.0000    30.0000    30.0000    86.2904     0.0000    -1.9995    -0.0010     0.0000   159.4104   -41.1799     3.6423     0.0162    -0.1208    -9.8477    14.7005    14.6907     0.0098     1.0000     1.0000     1.000
      6   133.5000      1.000  59295.000  14082.000      5.363    66.7975   -22.2454   -41.1655   119.9771     2.6000    -2.0000   -34.2897    39.0000    30.0000    30.0000    39.0000    10.0000    30.0000    30.0000    30.0000    86.2904     0.0000    -1.9995    -0.0010     0.0000   159.4104   -41.1799     3.6423     0.0424    -0.1208    -9.8486    14.7005    14.6907     0.0098     1.0000     1.0000     1.000
      7   133.0000      1.000  43940.000  14138.000      5.384    66.7975   -22.2454   -41.1655   119.9771     2.6000    -2.0000   -34.2897    39.0000    30.0000    30.0000    39.0000    10.0000    30.0000    30.0000    30.0000    86.2904     0.0000    -1.9995    -0.0010     0.0000   159.4104   -41.1799     3.6423     0.0686    -0.1208    -9.8487    14.7005    14.6907     0.0098     1.0000     1.0000     1.000
      8   132.5000      1.000  39307.000  13702.000      5.218    66.7975   -22.2454   -41.1655   119.9771     2.6000    -2.0000   -34.2897    39.0000    30.0000    30.0000    39.0000    10.0000    30.0000    30.0000    30.0000    86.2904     0.0000    -1.9995    -0.0010     0.0000   159.4104   -41.1799     3.6423     0.0947    -0.1208    -9.8481    14.7005    14.6907     0.0098     1.0000     1.0000     1.000
      9   132.0000      1.000  43407.000  13937.000      5.307    66.7975   -22.2454   -41.1655   119.9771     2.6000    -2.0000   -34.2897    39.0000    30.0000    30.0000    39.0000    10.0000    30.0000    30.0000    30.0000    86.2904     0.0000    -1.9995    -0.0010     0.0000   159.4104   -41.1799     3.6423     0.1209    -0.1208    -9.8467    14.7005    14.6907     0.0098     1.0000     1.0000     1.000
     10   131.5000      1.000  95572.000  13913.000      5.298    66.7975   -22.2454   -41.1655   119.9771     2.6000    -2.0000   -34.2897    39.0000    30.0000    30.0000    39.0000    10.0000    30.0000    30.0000    30.0000    86.2904     0.0000    -1.9995    -0.0010     0.0000   159.4104   -41.1799     3.6423     0.1471    -0.1208    -9.8446    14.7005    14.6907     0.0098     1.0000     1.0000     1.000
     11   131.0000      1.000  30020.000  13755.000      5.238    66.7975   -22.2454   -41.1655   119.9771     2.6000    -2.0000   -34.2897    39.0000    30.0000    30.0000    39.0000    10.0000    30.0000    30.0000    30.0000    86.2904     0.0000    -1.9995    -0.0010     0.0000   159.4104   -41.1799     3.6423     0.1732    -0.1208    -9.8418    14.7005    14.6907     0.0098     1.0000     1.0000     1.000
     12   130.5000      1.000  11064.000  13520.000      5.149    66.7975   -22.2454   -41.1655   119.9771     2.6000    -2.0000   -34.2897    39.0000    30.0000    30.0000    39.0000    10.0000    30.0000    30.0000    30.0000    86.2904     0.0000    -1.9995    -0.0010     0.0000   159.4104   -41.1799     3.6423     0.1993    -0.1207    -9.8382    14.7005    14.6907     0.0098     1.0000     1.0000     1.000
     13   130.0000      1.000  13597.000  13661.000      5.202    66.7975   -22.2454   -41.1655   119.9771     2.6000    -2.0000   -34.2897    39.0000    30.0000    30.0000    39.0000    10.0000    30.0000    30.0000    30.0000    86.2904     0.0000    -1.9995    -0.0010     0.0000   159.4104   -41.1799     3.6423     0.2254    -0.1207    -9.8338    14.7005    14.6907     0.0098     1.0000     1.0000     1.000
     14   129.5000      1.000  16042.000  13428.000      5.113    66.7975   -22.2454   -41.1655   119.9771     2.6000    -2.0000   -34.2897    39.0000    30.0000    30.0000    39.0000    10.0000    30.0000    30.0000    30.0000    86.2904     0.0000    -1.9995    -0.0010     0.0000   159.4104   -41.1799     3.6423     0.2515    -0.1206    -9.8287    14.7005    14.6907     0.0098     1.0000     1.0000     1.000
     15   129.0000      1.000   3791.000  13563.000      5.165    66.7975   -22.2454   -41.1655   119.9771     2.6000    -2.0000   -34.2897    39.0000    30.0000    30.0000    39.0000    10.0000    30.0000    30.0000    30.0000    86.2904     0.0000    -1.9995    -0.0010     0.0000   159.4104   -41.1799     3.6423     0.2776    -0.1205    -9.8229    14.7005    14.6907     0.0098     1.0000     1.0000     1.000
     16   128.5000      1.000   2507.000  13686.000      5.212    66.7975   -22.2454   -41.1655   119.9771     2.6000    -2.0000   -34.2897    39.0000    30.0000    30.0000    39.0000    10.0000    30.0000    30.0000    30.0000    86.2904     0.0000    -1.9995    -0.0010     0.0000   159.4104   -41.1799     3.6423     0.3037    -0.1205    -9.8163    14.7005    14.6907     0.0098     1.0000     1.0000     1.000
     17   128.0000      1.000   2198.000  13643.000      5.195    66.7975   -22.2454   -41.1655   119.9771     2.6000    -2.0000   -34.2897    39.0000    30.0000    30.0000    39.0000    10.0000    30.0000    30.0000    30.0000    86.2904     0.0000    -1.9995    -0.0010     0.0000   159.4104   -41.1799     3.6423     0.3297    -0.1204    -9.8089    14.7005    14.6907     0.0098     1.0000     1.0000     1.000
     18   127.5000      1.000   2062.000  13674.000      5.207    66.7975   -22.2454   -41.1655   119.9771     2.6000    -2.0000   -34.2897    39.0000    30.0000    30.0000    39.0000    10.0000    30.0000    30.0000    30.0000    86.2904     0.0000    -1.9995    -0.0010     0.0000   159.4104   -41.1799     3.6423     0.3557    -0.1203    -9.8008    14.7005    14.6907     0.0098     1.0000     1.0000     1.000
     19   127.0000      1.000   1624.000  13569.000      5.167    66.7975   -22.2454   -41.1655   119.9771     2.6000    -2.0000   -34.2897    39.0000    30.0000    30.0000    39.0000    10.0000    30.0000    30.0000    30.0000    86.2904     0.0000    -1.9995    -0.0010     0.0000   159.4104   -41.1799     3.6423     0.3817    -0.1202    -9.7920    14.7005    14.6907     0.0098     1.0000     1.0000     1.000
     20   126.5000      1.000   1822.000  13587.000      5.174    66.7975   -22.2454   -41.1655   119.9771     2.6000    -2.0000   -34.2897    39.0000    30.0000    30.0000    39.0000    10.0000    30.0000    30.0000    30.0000    86.2904     0.0000    -1.9995    -0.0010     0.0000   159.4104   -41.1799     3.6423     0.4077    -0.1200    -9.7824    14.7005    14.6907     0.0098     1.0000     1.0000     1.000
     21   126.0000      1.000   2042.000  13573.000      5.169    66.7975   -22.2454   -41.1655   119.9771     2.6000    -2.0000   -34.2897    39.0000    30.0000    30.0000    39.0000    10.0000    30.0000    30.0000    30.0000    86.2904     0.0000    -1.9995    -0.0010     0.0000   159.4104   -41.1799     3.6423     0.4336    -0.1199    -9.7720    14.7005    14.6907     0.0098     1.0000     1.0000     1.000
# Sum of Counts = 712186
# Center of Mass = 133.175293+/-0.223183
# Full Width Half-Maximum = 3.583197+/-0.113084
# 1:47:02 PM  9/5/2017   scan completed.
