# scan = 66
# date = 9/5/2017
# time = 10:06:06 PM
# proposal = 19739
# experiment = Separation of phonon and magnetic scattering near the Majorana mode in Î±-RuCl3: feasibility study
# experiment_number = 600
# command = scan h 0.9 1.1 0.01 k 0 l 5 e 0
# builtin_command = scan h 0.9 1.1 0.01 k 0 l 5 e 0
# users = Paula Kelley
# local_contact = 
# scan_title = CCR RT alignment check
# monochromator = PG002
# analyzer = Pg002
# sense = -+-
# collimation = 48-40-40-120
# samplename = RuCl3
# sampletype = crystal
# samplemosaic = 30.000000
# latticeconstants = 5.975000,5.975000,17.000000,90.000000,90.000000,120.000000
# ubmatrix = 0.007997,-0.001843,-0.058737,0.192379,0.110766,0.002248,0.016549,-0.158351,0.002256
# mode = 0
# plane_normal = 0.034900,-0.087094,0.995588
# ubconf = UB05Sep2017_95742PM.ini
# preset_type = normal 
# preset_channel = time
# preset_value = 1.000000
# def_x = h
# def_y = detector
# col_headers = 
#   Pt.          h          k          l          e       time   detector    monitor        mcu focal_length         m1         m2   mcrystal       marc     mtrans     mfocus        bab        bal        bar        bat        bbb        bbl        bbr        bbt         s1         s2        sgl        sgu        stl        stu         a1         a2          q         ei         ef   cold_tip    tsample       temp
      1     0.8993     0.0000     5.0002     0.0098      1.000     81.000  13838.000      5.270    66.7975   -22.2454   -41.1655   119.9771     2.6000    -2.0000   -34.2897    39.0000    30.0000    30.0000    39.0000    39.0000    30.0000    30.0000    39.0000    56.7392    47.5339    -2.0000    -4.9995    -0.0010    -0.0010   159.4104   -41.1799     2.1465    14.7005    14.6907   220.2170   247.6660     1.000
      2     0.9094     0.0000     5.0019     0.0098      1.000     98.000  13707.000      5.220    66.7975   -22.2454   -41.1655   119.9771     2.6000    -2.0000   -34.2897    39.0000    30.0000    30.0000    39.0000    39.0000    30.0000    30.0000    39.0000    57.0907    47.6944    -2.0000    -4.9995    -0.0010    -0.0010   159.4104   -41.1799     2.1534    14.7005    14.6907   220.0060   247.4990     1.000
      3     0.9194     0.0000     5.0022     0.0098      1.000     83.000  13896.000      5.292    66.7975   -22.2454   -41.1655   119.9771     2.6000    -2.0000   -34.2897    39.0000    30.0000    30.0000    39.0000    39.0000    30.0000    30.0000    39.0000    57.4409    47.8432    -2.0000    -4.9995    -0.0010    -0.0010   159.4104   -41.1799     2.1597    14.7005    14.6907   219.8040   247.3730     1.000
      4     0.9294     0.0000     5.0019     0.0098      1.000     72.000  13942.000      5.309    66.7975   -22.2454   -41.1655   119.9771     2.6000    -2.0000   -34.2897    39.0000    30.0000    30.0000    39.0000    39.0000    30.0000    30.0000    39.0000    57.7901    47.9895    -2.0000    -4.9995    -0.0010    -0.0010   159.4104   -41.1799     2.1659    14.7005    14.6907   219.5870   247.0340     1.000
      5     0.9394     0.0000     5.0024     0.0098      1.000     96.000  13744.000      5.234    66.7975   -22.2454   -41.1655   119.9771     2.6000    -2.0000   -34.2897    39.0000    30.0000    30.0000    39.0000    39.0000    30.0000    30.0000    39.0000    58.1380    48.1434    -2.0000    -4.9995    -0.0010    -0.0010   159.4104   -41.1799     2.1724    14.7005    14.6907   219.3830   246.9230     1.000
      6     0.9494     0.0000     5.0023     0.0098      1.000     93.000  13974.000      5.321    66.7975   -22.2454   -41.1655   119.9771     2.6000    -2.0000   -34.2897    39.0000    30.0000    30.0000    39.0000    39.0000    30.0000    30.0000    39.0000    58.4853    48.2936    -2.0000    -4.9995    -0.0010    -0.0010   159.4104   -41.1799     2.1788    14.7005    14.6907   219.1740   246.7640     1.000
      7     0.9594     0.0000     5.0022     0.0098      1.000    121.000  13819.000      5.262    66.7975   -22.2454   -41.1655   119.9771     2.6000    -2.0000   -34.2897    39.0000    30.0000    30.0000    39.0000    39.0000    30.0000    30.0000    39.0000    58.8315    48.4448    -2.0000    -4.9995    -0.0010    -0.0010   159.4104   -41.1799     2.1852    14.7005    14.6907   218.9650   246.5770     1.000
      8     0.9694     0.0000     5.0023     0.0098      1.000    353.000  13798.000      5.254    66.7975   -22.2454   -41.1655   119.9771     2.6000    -2.0000   -34.2897    39.0000    30.0000    30.0000    39.0000    39.0000    30.0000    30.0000    39.0000    59.1766    48.5987    -2.0000    -4.9995    -0.0010    -0.0010   159.4104   -41.1799     2.1917    14.7005    14.6907   218.7520   246.3270     1.000
      9     0.9794     0.0000     5.0024     0.0098      1.000   1555.000  13710.000      5.221    66.7975   -22.2454   -41.1655   119.9771     2.6000    -2.0000   -34.2897    39.0000    30.0000    30.0000    39.0000    39.0000    30.0000    30.0000    39.0000    59.5209    48.7540    -2.0000    -4.9995    -0.0010    -0.0010   159.4104   -41.1799     2.1983    14.7005    14.6907   218.5450   246.1390     1.000
     10     0.9894     0.0000     5.0025     0.0098      1.000   1035.000  13711.000      5.221    66.7975   -22.2454   -41.1655   119.9771     2.6000    -2.0000   -34.2897    39.0000    30.0000    30.0000    39.0000    39.0000    30.0000    30.0000    39.0000    59.8641    48.9107    -2.0000    -4.9995    -0.0010    -0.0010   159.4104   -41.1799     2.2050    14.7005    14.6907   218.3350   245.9310     1.000
     11     0.9994     0.0000     5.0023     0.0098      1.000    984.000  13787.000      5.250    66.7975   -22.2454   -41.1655   119.9771     2.6000    -2.0000   -34.2897    39.0000    30.0000    30.0000    39.0000    39.0000    30.0000    30.0000    39.0000    60.2065    49.0664    -2.0000    -4.9995    -0.0010    -0.0010   159.4104   -41.1799     2.2115    14.7005    14.6907   218.1270   245.8250     1.000
     12     1.0094     0.0000     5.0021     0.0098      1.000   4787.000  13938.000      5.308    66.7975   -22.2454   -41.1655   119.9771     2.6000    -2.0000   -34.2897    39.0000    30.0000    30.0000    39.0000    39.0000    30.0000    30.0000    39.0000    60.5479    49.2231    -2.0000    -4.9995    -0.0010    -0.0010   159.4104   -41.1799     2.2182    14.7005    14.6907   217.9150   245.5810     1.000
     13     1.0194     0.0000     5.0021     0.0098      1.000   5157.000  13850.000      5.274    66.7975   -22.2454   -41.1655   119.9771     2.6000    -2.0000   -34.2897    39.0000    30.0000    30.0000    39.0000    39.0000    30.0000    30.0000    39.0000    60.8880    49.3820    -2.0000    -4.9995    -0.0010    -0.0010   159.4104   -41.1799     2.2249    14.7005    14.6907   217.7070   245.4180     1.000
     14     1.0294     0.0000     5.0024     0.0098      1.000   1086.000  13472.000      5.130    66.7975   -22.2454   -41.1655   119.9771     2.6000    -2.0000   -34.2897    39.0000    30.0000    30.0000    39.0000    39.0000    30.0000    30.0000    39.0000    61.2272    49.5448    -2.0000    -4.9995    -0.0010    -0.0010   159.4104   -41.1799     2.2317    14.7005    14.6907   217.4900   245.1490     1.000
     15     1.0394     0.0000     5.0019     0.0098      1.000    235.000  13798.000      5.254    66.7975   -22.2454   -41.1655   119.9771     2.6000    -2.0000   -34.2897    39.0000    30.0000    30.0000    39.0000    39.0000    30.0000    30.0000    39.0000    61.5656    49.7026    -2.0000    -4.9995    -0.0010    -0.0010   159.4104   -41.1799     2.2384    14.7005    14.6907   217.2870   245.0450     1.000
     16     1.0494     0.0000     5.0022     0.0098      1.000    129.000  13831.000      5.267    66.7975   -22.2454   -41.1655   119.9771     2.6000    -2.0000   -34.2897    39.0000    30.0000    30.0000    39.0000    39.0000    30.0000    30.0000    39.0000    61.9030    49.8678    -2.0000    -4.9995    -0.0010    -0.0010   159.4104   -41.1799     2.2454    14.7005    14.6907   217.0780   244.8780     1.000
     17     1.0594     0.0000     5.0018     0.0098      1.000    112.000  13889.000      5.289    66.7975   -22.2454   -41.1655   119.9771     2.6000    -2.0000   -34.2897    39.0000    30.0000    30.0000    39.0000    39.0000    30.0000    30.0000    39.0000    62.2395    50.0288    -2.0000    -4.9995    -0.0010    -0.0010   159.4104   -41.1799     2.2522    14.7005    14.6907   216.8640   244.6190     1.000
     18     1.0694     0.0000     5.0019     0.0098      1.000     93.000  13918.000      5.300    66.7975   -22.2454   -41.1655   119.9771     2.6000    -2.0000   -34.2897    39.0000    30.0000    30.0000    39.0000    39.0000    30.0000    30.0000    39.0000    62.5749    50.1950    -2.0000    -4.9995    -0.0010    -0.0010   159.4104   -41.1799     2.2592    14.7005    14.6907   216.6580   244.4310     1.000
     19     1.0794     0.0000     5.0021     0.0098      1.000    102.000  14021.000      5.339    66.7975   -22.2454   -41.1655   119.9771     2.6000    -2.0000   -34.2897    39.0000    30.0000    30.0000    39.0000    39.0000    30.0000    30.0000    39.0000    62.9093    50.3629    -2.0000    -4.9995    -0.0010    -0.0010   159.4104   -41.1799     2.2662    14.7005    14.6907   216.4520   244.3050     1.000
     20     1.0894     0.0000     5.0021     0.0098      1.000     85.000  13744.000      5.234    66.7975   -22.2454   -41.1655   119.9771     2.6000    -2.0000   -34.2897    39.0000    30.0000    30.0000    39.0000    39.0000    30.0000    30.0000    39.0000    63.2425    50.5310    -2.0000    -4.9995    -0.0010    -0.0010   159.4104   -41.1799     2.2733    14.7005    14.6907   216.2490   244.1790     1.000
     21     1.0994     0.0000     5.0025     0.0098      1.000    117.000  13949.000      5.312    66.7975   -22.2454   -41.1655   119.9771     2.6000    -2.0000   -34.2897    39.0000    30.0000    30.0000    39.0000    39.0000    30.0000    30.0000    39.0000    63.5750    50.7026    -2.0000    -4.9995    -0.0010    -0.0010   159.4104   -41.1799     2.2805    14.7005    14.6907   216.0330   243.9010     1.000
# Sum of Counts = 16474
# Center of Mass = 1.008158+/-0.011110
# Full Width Half-Maximum = 0.050800+/-0.004572
# 10:07:35 PM  9/5/2017   scan completed.
