# scan = 5
# date = 9/5/2017
# time = 1:22:57 PM
# proposal = 19739
# experiment = Separation of phonon and magnetic scattering near the Majorana mode in Î±-RuCl3: feasibility study
# experiment_number = 600
# command = scan bbt 20 10 2
# builtin_command = scan bbt 20 10 2
# users = Paula Kelley
# local_contact = 
# scan_title = Co-Alignment on post RT 3 0 0 postion
# monochromator = PG002
# analyzer = Pg002
# sense = -+-
# collimation = 48-40-40-120
# samplename = RuCl3
# sampletype = crystal
# samplemosaic = 30.000000
# latticeconstants = 5.975000,5.975000,17.000000,90.000000,90.000000,120.000000
# ubmatrix = -0.193255,-0.096628,0.000000,-0.000000,0.000000,-0.058824,0.000000,-0.167364,0.000000
# mode = 0
# plane_normal = 0.000000,0.000000,1.000000
# ubconf = UB05Sep2017_10850PM.ini
# preset_type = normal 
# preset_channel = time
# preset_value = 1.000000
# def_x = bbt
# def_y = detector
# col_headers = 
#   Pt.        bbt       time   detector    monitor        mcu focal_length         m1         m2   mcrystal       marc     mtrans     mfocus        bab        bal        bar        bat        bbb        bbl        bbr         s1         s2        sgl        sgu        stl        stu         a1         a2          q          h          k          l         ei         ef          e   cold_tip    tsample       temp
      1    20.0000      1.000 102683.000  13634.000      5.192    66.7975   -22.2454   -41.1655   119.9771     2.6000    -2.0000   -34.2897    35.0000    30.0000    30.0000    35.0000    35.0000    30.0000    30.0000   133.5002    86.2904     0.0000     0.0000    -0.0010     0.0000   159.4104   -41.1799     3.6423    -0.0181     0.0000    -9.8546    14.7005    14.6907     0.0098     1.0000     1.0000     1.000
      2    18.0000      1.000 101442.000  13314.000      5.070    66.7975   -22.2454   -41.1655   119.9771     2.6000    -2.0000   -34.2897    35.0000    30.0000    30.0000    35.0000    35.0000    30.0000    30.0000   133.5002    86.2904     0.0000     0.0000    -0.0010     0.0000   159.4104   -41.1799     3.6423    -0.0181     0.0000    -9.8546    14.7005    14.6907     0.0098     1.0000     1.0000     1.000
      3    16.0000      1.000  99124.000  13520.000      5.149    66.7975   -22.2454   -41.1655   119.9771     2.6000    -2.0000   -34.2897    35.0000    30.0000    30.0000    35.0000    35.0000    30.0000    30.0000   133.5002    86.2904     0.0000     0.0000    -0.0010     0.0000   159.4104   -41.1799     3.6423    -0.0181     0.0000    -9.8546    14.7005    14.6907     0.0098     1.0000     1.0000     1.000
      4    14.0000      1.000  97029.000  13480.000      5.133    66.7975   -22.2454   -41.1655   119.9771     2.6000    -2.0000   -34.2897    35.0000    30.0000    30.0000    35.0000    35.0000    30.0000    30.0000   133.5002    86.2904     0.0000     0.0000    -0.0010     0.0000   159.4104   -41.1799     3.6423    -0.0181     0.0000    -9.8546    14.7005    14.6907     0.0098     1.0000     1.0000     1.000
      5    12.0000      1.000  92800.000  13362.000      5.088    66.7975   -22.2454   -41.1655   119.9771     2.6000    -2.0000   -34.2897    35.0000    30.0000    30.0000    35.0000    35.0000    30.0000    30.0000   133.5002    86.2904     0.0000     0.0000    -0.0010     0.0000   159.4104   -41.1799     3.6423    -0.0181     0.0000    -9.8546    14.7005    14.6907     0.0098     1.0000     1.0000     1.000
      6    10.0000      1.000  85959.000  13502.000      5.142    66.7975   -22.2454   -41.1655   119.9771     2.6000    -2.0000   -34.2897    35.0000    30.0000    30.0000    35.0000    35.0000    30.0000    30.0000   133.5002    86.2904     0.0000     0.0000    -0.0010     0.0000   159.4104   -41.1799     3.6423    -0.0181     0.0000    -9.8546    14.7005    14.6907     0.0098     1.0000     1.0000     1.000
# Sum of Counts = 579037
# Center of Mass = 15.192805+/-0.028584
# Full Width Half-Maximum = 6.772102+/-0.024321
# 1:23:32 PM  9/5/2017   scan completed.
