# scan = 18
# date = 9/5/2017
# time = 1:58:36 PM
# proposal = 19739
# experiment = Separation of phonon and magnetic scattering near the Majorana mode in Î±-RuCl3: feasibility study
# experiment_number = 600
# command = scan s1 147 127 0.1
# builtin_command = scan s1 147 127 0.1
# users = Paula Kelley
# local_contact = 
# scan_title = Co-Alignment on post RT 3 0 0 postion
# monochromator = PG002
# analyzer = Pg002
# sense = -+-
# collimation = 48-40-40-120
# samplename = RuCl3
# sampletype = crystal
# samplemosaic = 30.000000
# latticeconstants = 5.975000,5.975000,17.000000,90.000000,90.000000,120.000000
# ubmatrix = -0.193255,-0.096628,0.000000,-0.000000,0.000000,-0.058824,0.000000,-0.167364,0.000000
# mode = 0
# plane_normal = 0.000000,0.000000,1.000000
# ubconf = UB05Sep2017_10850PM.ini
# preset_type = normal 
# preset_channel = time
# preset_value = 1.000000
# def_x = s1
# def_y = detector
# col_headers = 
#   Pt.         s1       time   detector    monitor        mcu focal_length         m1         m2   mcrystal       marc     mtrans     mfocus        bab        bal        bar        bat        bbb        bbl        bbr        bbt         s2        sgl        sgu        stl        stu         a1         a2          q          h          k          l         ei         ef          e   cold_tip    tsample       temp
      1   147.0002      1.000    668.000  13426.000      5.113    66.7975   -22.2454   -41.1655   119.9771     2.6000    -2.0000   -34.2897    39.0000    30.0000    30.0000    39.0000    10.0000    30.0000    30.0000    30.0000    86.2904     0.0000    -1.9995    -0.0010     0.0000   159.4104   -41.1799     3.6423    -0.6591    -0.1173    -9.5626    14.7005    14.6907     0.0098     1.0000     1.0000     1.000
      2   146.9001      1.000    688.000  13416.000      5.109    66.7975   -22.2454   -41.1655   119.9771     2.6000    -2.0000   -34.2897    39.0000    30.0000    30.0000    39.0000    10.0000    30.0000    30.0000    30.0000    86.2904     0.0000    -1.9995    -0.0010     0.0000   159.4104   -41.1799     3.6423    -0.6540    -0.1174    -9.5667    14.7005    14.6907     0.0098     1.0000     1.0000     1.000
      3   146.8001      1.000    836.000  13282.000      5.058    66.7975   -22.2454   -41.1655   119.9771     2.6000    -2.0000   -34.2897    39.0000    30.0000    30.0000    39.0000    10.0000    30.0000    30.0000    30.0000    86.2904     0.0000    -1.9995    -0.0010     0.0000   159.4104   -41.1799     3.6423    -0.6489    -0.1174    -9.5708    14.7005    14.6907     0.0098     1.0000     1.0000     1.000
      4   146.7000      1.000    932.000  13357.000      5.086    66.7975   -22.2454   -41.1655   119.9771     2.6000    -2.0000   -34.2897    39.0000    30.0000    30.0000    39.0000    10.0000    30.0000    30.0000    30.0000    86.2904     0.0000    -1.9995    -0.0010     0.0000   159.4104   -41.1799     3.6423    -0.6438    -0.1175    -9.5748    14.7005    14.6907     0.0098     1.0000     1.0000     1.000
      5   146.6000      1.000   1060.000  13444.000      5.120    66.7975   -22.2454   -41.1655   119.9771     2.6000    -2.0000   -34.2897    39.0000    30.0000    30.0000    39.0000    10.0000    30.0000    30.0000    30.0000    86.2904     0.0000    -1.9995    -0.0010     0.0000   159.4104   -41.1799     3.6423    -0.6387    -0.1175    -9.5788    14.7005    14.6907     0.0098     1.0000     1.0000     1.000
      6   146.5000      1.000   1066.000  13239.000      5.042    66.7975   -22.2454   -41.1655   119.9771     2.6000    -2.0000   -34.2897    39.0000    30.0000    30.0000    39.0000    10.0000    30.0000    30.0000    30.0000    86.2904     0.0000    -1.9995    -0.0010     0.0000   159.4104   -41.1799     3.6423    -0.6335    -0.1176    -9.5828    14.7005    14.6907     0.0098     1.0000     1.0000     1.000
      7   146.4000      1.000   1063.000  13377.000      5.094    66.7975   -22.2454   -41.1655   119.9771     2.6000    -2.0000   -34.2897    39.0000    30.0000    30.0000    39.0000    10.0000    30.0000    30.0000    30.0000    86.2904     0.0000    -1.9995    -0.0010     0.0000   159.4104   -41.1799     3.6423    -0.6284    -0.1176    -9.5868    14.7005    14.6907     0.0098     1.0000     1.0000     1.000
      8   146.3000      1.000   1209.000  13492.000      5.138    66.7975   -22.2454   -41.1655   119.9771     2.6000    -2.0000   -34.2897    39.0000    30.0000    30.0000    39.0000    10.0000    30.0000    30.0000    30.0000    86.2904     0.0000    -1.9995    -0.0010     0.0000   159.4104   -41.1799     3.6423    -0.6233    -0.1177    -9.5907    14.7005    14.6907     0.0098     1.0000     1.0000     1.000
      9   146.2000      1.000   1174.000  13549.000      5.160    66.7975   -22.2454   -41.1655   119.9771     2.6000    -2.0000   -34.2897    39.0000    30.0000    30.0000    39.0000    10.0000    30.0000    30.0000    30.0000    86.2904     0.0000    -1.9995    -0.0010     0.0000   159.4104   -41.1799     3.6423    -0.6182    -0.1177    -9.5946    14.7005    14.6907     0.0098     1.0000     1.0000     1.000
     10   146.0999      1.000   1189.000  13396.000      5.101    66.7975   -22.2454   -41.1655   119.9771     2.6000    -2.0000   -34.2897    39.0000    30.0000    30.0000    39.0000    10.0000    30.0000    30.0000    30.0000    86.2904     0.0000    -1.9995    -0.0010     0.0000   159.4104   -41.1799     3.6423    -0.6130    -0.1178    -9.5985    14.7005    14.6907     0.0098     1.0000     1.0000     1.000
     11   146.0001      1.000   1168.000  13349.000      5.083    66.7975   -22.2454   -41.1655   119.9771     2.6000    -2.0000   -34.2897    39.0000    30.0000    30.0000    39.0000    10.0000    30.0000    30.0000    30.0000    86.2904     0.0000    -1.9995    -0.0010     0.0000   159.4104   -41.1799     3.6423    -0.6079    -0.1178    -9.6023    14.7005    14.6907     0.0098     1.0000     1.0000     1.000
     12   145.9001      1.000   1096.000  13228.000      5.037    66.7975   -22.2454   -41.1655   119.9771     2.6000    -2.0000   -34.2897    39.0000    30.0000    30.0000    39.0000    10.0000    30.0000    30.0000    30.0000    86.2904     0.0000    -1.9995    -0.0010     0.0000   159.4104   -41.1799     3.6423    -0.6028    -0.1179    -9.6061    14.7005    14.6907     0.0098     1.0000     1.0000     1.000
     13   145.8001      1.000   1105.000  13370.000      5.091    66.7975   -22.2454   -41.1655   119.9771     2.6000    -2.0000   -34.2897    39.0000    30.0000    30.0000    39.0000    10.0000    30.0000    30.0000    30.0000    86.2904     0.0000    -1.9995    -0.0010     0.0000   159.4104   -41.1799     3.6423    -0.5977    -0.1179    -9.6099    14.7005    14.6907     0.0098     1.0000     1.0000     1.000
     14   145.7000      1.000   1085.000  13451.000      5.122    66.7975   -22.2454   -41.1655   119.9771     2.6000    -2.0000   -34.2897    39.0000    30.0000    30.0000    39.0000    10.0000    30.0000    30.0000    30.0000    86.2904     0.0000    -1.9995    -0.0010     0.0000   159.4104   -41.1799     3.6423    -0.5925    -0.1180    -9.6136    14.7005    14.6907     0.0098     1.0000     1.0000     1.000
     15   145.6000      1.000   1065.000  13336.000      5.078    66.7975   -22.2454   -41.1655   119.9771     2.6000    -2.0000   -34.2897    39.0000    30.0000    30.0000    39.0000    10.0000    30.0000    30.0000    30.0000    86.2904     0.0000    -1.9995    -0.0010     0.0000   159.4104   -41.1799     3.6423    -0.5874    -0.1180    -9.6174    14.7005    14.6907     0.0098     1.0000     1.0000     1.000
     16   145.5000      1.000   1099.000  13481.000      5.134    66.7975   -22.2454   -41.1655   119.9771     2.6000    -2.0000   -34.2897    39.0000    30.0000    30.0000    39.0000    10.0000    30.0000    30.0000    30.0000    86.2904     0.0000    -1.9995    -0.0010     0.0000   159.4104   -41.1799     3.6423    -0.5823    -0.1181    -9.6210    14.7005    14.6907     0.0098     1.0000     1.0000     1.000
     17   145.4000      1.000   1108.000  13377.000      5.094    66.7975   -22.2454   -41.1655   119.9771     2.6000    -2.0000   -34.2897    39.0000    30.0000    30.0000    39.0000    10.0000    30.0000    30.0000    30.0000    86.2904     0.0000    -1.9995    -0.0010     0.0000   159.4104   -41.1799     3.6423    -0.5771    -0.1181    -9.6247    14.7005    14.6907     0.0098     1.0000     1.0000     1.000
     18   145.3000      1.000   1122.000  13556.000      5.162    66.7975   -22.2454   -41.1655   119.9771     2.6000    -2.0000   -34.2897    39.0000    30.0000    30.0000    39.0000    10.0000    30.0000    30.0000    30.0000    86.2904     0.0000    -1.9995    -0.0010     0.0000   159.4104   -41.1799     3.6423    -0.5720    -0.1181    -9.6283    14.7005    14.6907     0.0098     1.0000     1.0000     1.000
     19   145.2000      1.000   1084.000  13491.000      5.137    66.7975   -22.2454   -41.1655   119.9771     2.6000    -2.0000   -34.2897    39.0000    30.0000    30.0000    39.0000    10.0000    30.0000    30.0000    30.0000    86.2904     0.0000    -1.9995    -0.0010     0.0000   159.4104   -41.1799     3.6423    -0.5668    -0.1182    -9.6319    14.7005    14.6907     0.0098     1.0000     1.0000     1.000
     20   145.1000      1.000   1076.000  13357.000      5.086    66.7975   -22.2454   -41.1655   119.9771     2.6000    -2.0000   -34.2897    39.0000    30.0000    30.0000    39.0000    10.0000    30.0000    30.0000    30.0000    86.2904     0.0000    -1.9995    -0.0010     0.0000   159.4104   -41.1799     3.6423    -0.5617    -0.1182    -9.6355    14.7005    14.6907     0.0098     1.0000     1.0000     1.000
     21   145.0001      1.000   1218.000  13610.000      5.183    66.7975   -22.2454   -41.1655   119.9771     2.6000    -2.0000   -34.2897    39.0000    30.0000    30.0000    39.0000    10.0000    30.0000    30.0000    30.0000    86.2904     0.0000    -1.9995    -0.0010     0.0000   159.4104   -41.1799     3.6423    -0.5566    -0.1183    -9.6390    14.7005    14.6907     0.0098     1.0000     1.0000     1.000
     22   144.9001      1.000   1195.000  13412.000      5.107    66.7975   -22.2454   -41.1655   119.9771     2.6000    -2.0000   -34.2897    39.0000    30.0000    30.0000    39.0000    10.0000    30.0000    30.0000    30.0000    86.2904     0.0000    -1.9995    -0.0010     0.0000   159.4104   -41.1799     3.6423    -0.5514    -0.1183    -9.6426    14.7005    14.6907     0.0098     1.0000     1.0000     1.000
     23   144.8001      1.000   1341.000  13511.000      5.145    66.7975   -22.2454   -41.1655   119.9771     2.6000    -2.0000   -34.2897    39.0000    30.0000    30.0000    39.0000    10.0000    30.0000    30.0000    30.0000    86.2904     0.0000    -1.9995    -0.0010     0.0000   159.4104   -41.1799     3.6423    -0.5463    -0.1184    -9.6460    14.7005    14.6907     0.0098     1.0000     1.0000     1.000
     24   144.7000      1.000   1635.000  13245.000      5.044    66.7975   -22.2454   -41.1655   119.9771     2.6000    -2.0000   -34.2897    39.0000    30.0000    30.0000    39.0000    10.0000    30.0000    30.0000    30.0000    86.2904     0.0000    -1.9995    -0.0010     0.0000   159.4104   -41.1799     3.6423    -0.5411    -0.1184    -9.6495    14.7005    14.6907     0.0098     1.0000     1.0000     1.000
     25   144.6000      1.000   1988.000  13420.000      5.110    66.7975   -22.2454   -41.1655   119.9771     2.6000    -2.0000   -34.2897    39.0000    30.0000    30.0000    39.0000    10.0000    30.0000    30.0000    30.0000    86.2904     0.0000    -1.9995    -0.0010     0.0000   159.4104   -41.1799     3.6423    -0.5360    -0.1184    -9.6529    14.7005    14.6907     0.0098     1.0000     1.0000     1.000
     26   144.5000      1.000   2299.000  13351.000      5.084    66.7975   -22.2454   -41.1655   119.9771     2.6000    -2.0000   -34.2897    39.0000    30.0000    30.0000    39.0000    10.0000    30.0000    30.0000    30.0000    86.2904     0.0000    -1.9995    -0.0010     0.0000   159.4104   -41.1799     3.6423    -0.5308    -0.1185    -9.6563    14.7005    14.6907     0.0098     1.0000     1.0000     1.000
     27   144.4000      1.000   2776.000  13369.000      5.091    66.7975   -22.2454   -41.1655   119.9771     2.6000    -2.0000   -34.2897    39.0000    30.0000    30.0000    39.0000    10.0000    30.0000    30.0000    30.0000    86.2904     0.0000    -1.9995    -0.0010     0.0000   159.4104   -41.1799     3.6423    -0.5257    -0.1185    -9.6597    14.7005    14.6907     0.0098     1.0000     1.0000     1.000
     28   144.3000      1.000   3742.000  13510.000      5.145    66.7975   -22.2454   -41.1655   119.9771     2.6000    -2.0000   -34.2897    39.0000    30.0000    30.0000    39.0000    10.0000    30.0000    30.0000    30.0000    86.2904     0.0000    -1.9995    -0.0010     0.0000   159.4104   -41.1799     3.6423    -0.5205    -0.1186    -9.6630    14.7005    14.6907     0.0098     1.0000     1.0000     1.000
     29   144.2000      1.000   5074.000  13330.000      5.076    66.7975   -22.2454   -41.1655   119.9771     2.6000    -2.0000   -34.2897    39.0000    30.0000    30.0000    39.0000    10.0000    30.0000    30.0000    30.0000    86.2904     0.0000    -1.9995    -0.0010     0.0000   159.4104   -41.1799     3.6423    -0.5153    -0.1186    -9.6663    14.7005    14.6907     0.0098     1.0000     1.0000     1.000
     30   144.1000      1.000   5111.000  13397.000      5.102    66.7975   -22.2454   -41.1655   119.9771     2.6000    -2.0000   -34.2897    39.0000    30.0000    30.0000    39.0000    10.0000    30.0000    30.0000    30.0000    86.2904     0.0000    -1.9995    -0.0010     0.0000   159.4104   -41.1799     3.6423    -0.5102    -0.1187    -9.6696    14.7005    14.6907     0.0098     1.0000     1.0000     1.000
     31   144.0001      1.000   4217.000  13565.000      5.166    66.7975   -22.2454   -41.1655   119.9771     2.6000    -2.0000   -34.2897    39.0000    30.0000    30.0000    39.0000    10.0000    30.0000    30.0000    30.0000    86.2904     0.0000    -1.9995    -0.0010     0.0000   159.4104   -41.1799     3.6423    -0.5050    -0.1187    -9.6729    14.7005    14.6907     0.0098     1.0000     1.0000     1.000
     32   143.9000      1.000   3369.000  13449.000      5.121    66.7975   -22.2454   -41.1655   119.9771     2.6000    -2.0000   -34.2897    39.0000    30.0000    30.0000    39.0000    10.0000    30.0000    30.0000    30.0000    86.2904     0.0000    -1.9995    -0.0010     0.0000   159.4104   -41.1799     3.6423    -0.4999    -0.1187    -9.6761    14.7005    14.6907     0.0098     1.0000     1.0000     1.000
     33   143.8000      1.000   2464.000  13407.000      5.105    66.7975   -22.2454   -41.1655   119.9771     2.6000    -2.0000   -34.2897    39.0000    30.0000    30.0000    39.0000    10.0000    30.0000    30.0000    30.0000    86.2904     0.0000    -1.9995    -0.0010     0.0000   159.4104   -41.1799     3.6423    -0.4947    -0.1188    -9.6793    14.7005    14.6907     0.0098     1.0000     1.0000     1.000
     34   143.7000      1.000   1991.000  13304.000      5.066    66.7975   -22.2454   -41.1655   119.9771     2.6000    -2.0000   -34.2897    39.0000    30.0000    30.0000    39.0000    10.0000    30.0000    30.0000    30.0000    86.2904     0.0000    -1.9995    -0.0010     0.0000   159.4104   -41.1799     3.6423    -0.4895    -0.1188    -9.6824    14.7005    14.6907     0.0098     1.0000     1.0000     1.000
     35   143.6000      1.000   1723.000  13448.000      5.121    66.7975   -22.2454   -41.1655   119.9771     2.6000    -2.0000   -34.2897    39.0000    30.0000    30.0000    39.0000    10.0000    30.0000    30.0000    30.0000    86.2904     0.0000    -1.9995    -0.0010     0.0000   159.4104   -41.1799     3.6423    -0.4844    -0.1188    -9.6856    14.7005    14.6907     0.0098     1.0000     1.0000     1.000
     36   143.5000      1.000   1657.000  13347.000      5.083    66.7975   -22.2454   -41.1655   119.9771     2.6000    -2.0000   -34.2897    39.0000    30.0000    30.0000    39.0000    10.0000    30.0000    30.0000    30.0000    86.2904     0.0000    -1.9995    -0.0010     0.0000   159.4104   -41.1799     3.6423    -0.4792    -0.1189    -9.6887    14.7005    14.6907     0.0098     1.0000     1.0000     1.000
     37   143.4000      1.000   1578.000  13450.000      5.122    66.7975   -22.2454   -41.1655   119.9771     2.6000    -2.0000   -34.2897    39.0000    30.0000    30.0000    39.0000    10.0000    30.0000    30.0000    30.0000    86.2904     0.0000    -1.9995    -0.0010     0.0000   159.4104   -41.1799     3.6423    -0.4740    -0.1189    -9.6917    14.7005    14.6907     0.0098     1.0000     1.0000     1.000
     38   143.3000      1.000   1672.000  13485.000      5.135    66.7975   -22.2454   -41.1655   119.9771     2.6000    -2.0000   -34.2897    39.0000    30.0000    30.0000    39.0000    10.0000    30.0000    30.0000    30.0000    86.2904     0.0000    -1.9995    -0.0010     0.0000   159.4104   -41.1799     3.6423    -0.4688    -0.1190    -9.6948    14.7005    14.6907     0.0098     1.0000     1.0000     1.000
     39   143.2000      1.000   1666.000  13184.000      5.021    66.7975   -22.2454   -41.1655   119.9771     2.6000    -2.0000   -34.2897    39.0000    30.0000    30.0000    39.0000    10.0000    30.0000    30.0000    30.0000    86.2904     0.0000    -1.9995    -0.0010     0.0000   159.4104   -41.1799     3.6423    -0.4637    -0.1190    -9.6978    14.7005    14.6907     0.0098     1.0000     1.0000     1.000
     40   143.1000      1.000   1651.000  13427.000      5.113    66.7975   -22.2454   -41.1655   119.9771     2.6000    -2.0000   -34.2897    39.0000    30.0000    30.0000    39.0000    10.0000    30.0000    30.0000    30.0000    86.2904     0.0000    -1.9995    -0.0010     0.0000   159.4104   -41.1799     3.6423    -0.4585    -0.1190    -9.7008    14.7005    14.6907     0.0098     1.0000     1.0000     1.000
     41   143.0001      1.000   1638.000  13349.000      5.083    66.7975   -22.2454   -41.1655   119.9771     2.6000    -2.0000   -34.2897    39.0000    30.0000    30.0000    39.0000    10.0000    30.0000    30.0000    30.0000    86.2904     0.0000    -1.9995    -0.0010     0.0000   159.4104   -41.1799     3.6423    -0.4533    -0.1191    -9.7037    14.7005    14.6907     0.0098     1.0000     1.0000     1.000
     42   142.9000      1.000   1657.000  13299.000      5.064    66.7975   -22.2454   -41.1655   119.9771     2.6000    -2.0000   -34.2897    39.0000    30.0000    30.0000    39.0000    10.0000    30.0000    30.0000    30.0000    86.2904     0.0000    -1.9995    -0.0010     0.0000   159.4104   -41.1799     3.6423    -0.4481    -0.1191    -9.7067    14.7005    14.6907     0.0098     1.0000     1.0000     1.000
     43   142.8000      1.000   1787.000  13093.000      4.986    66.7975   -22.2454   -41.1655   119.9771     2.6000    -2.0000   -34.2897    39.0000    30.0000    30.0000    39.0000    10.0000    30.0000    30.0000    30.0000    86.2904     0.0000    -1.9995    -0.0010     0.0000   159.4104   -41.1799     3.6423    -0.4430    -0.1191    -9.7095    14.7005    14.6907     0.0098     1.0000     1.0000     1.000
     44   142.7000      1.000   1887.000  13364.000      5.089    66.7975   -22.2454   -41.1655   119.9771     2.6000    -2.0000   -34.2897    39.0000    30.0000    30.0000    39.0000    10.0000    30.0000    30.0000    30.0000    86.2904     0.0000    -1.9995    -0.0010     0.0000   159.4104   -41.1799     3.6423    -0.4378    -0.1192    -9.7124    14.7005    14.6907     0.0098     1.0000     1.0000     1.000
     45   142.6000      1.000   1942.000  13341.000      5.080    66.7975   -22.2454   -41.1655   119.9771     2.6000    -2.0000   -34.2897    39.0000    30.0000    30.0000    39.0000    10.0000    30.0000    30.0000    30.0000    86.2904     0.0000    -1.9995    -0.0010     0.0000   159.4104   -41.1799     3.6423    -0.4326    -0.1192    -9.7152    14.7005    14.6907     0.0098     1.0000     1.0000     1.000
     46   142.5000      1.000   2027.000  13414.000      5.108    66.7975   -22.2454   -41.1655   119.9771     2.6000    -2.0000   -34.2897    39.0000    30.0000    30.0000    39.0000    10.0000    30.0000    30.0000    30.0000    86.2904     0.0000    -1.9995    -0.0010     0.0000   159.4104   -41.1799     3.6423    -0.4274    -0.1192    -9.7181    14.7005    14.6907     0.0098     1.0000     1.0000     1.000
     47   142.4000      1.000   2084.000  13386.000      5.097    66.7975   -22.2454   -41.1655   119.9771     2.6000    -2.0000   -34.2897    39.0000    30.0000    30.0000    39.0000    10.0000    30.0000    30.0000    30.0000    86.2904     0.0000    -1.9995    -0.0010     0.0000   159.4104   -41.1799     3.6423    -0.4222    -0.1193    -9.7208    14.7005    14.6907     0.0098     1.0000     1.0000     1.000
     48   142.3000      1.000   2140.000  13307.000      5.067    66.7975   -22.2454   -41.1655   119.9771     2.6000    -2.0000   -34.2897    39.0000    30.0000    30.0000    39.0000    10.0000    30.0000    30.0000    30.0000    86.2904     0.0000    -1.9995    -0.0010     0.0000   159.4104   -41.1799     3.6423    -0.4171    -0.1193    -9.7236    14.7005    14.6907     0.0098     1.0000     1.0000     1.000
     49   142.2000      1.000   2224.000  13371.000      5.092    66.7975   -22.2454   -41.1655   119.9771     2.6000    -2.0000   -34.2897    39.0000    30.0000    30.0000    39.0000    10.0000    30.0000    30.0000    30.0000    86.2904     0.0000    -1.9995    -0.0010     0.0000   159.4104   -41.1799     3.6423    -0.4119    -0.1193    -9.7263    14.7005    14.6907     0.0098     1.0000     1.0000     1.000
     50   142.1000      1.000   2258.000  13428.000      5.113    66.7975   -22.2454   -41.1655   119.9771     2.6000    -2.0000   -34.2897    39.0000    30.0000    30.0000    39.0000    10.0000    30.0000    30.0000    30.0000    86.2904     0.0000    -1.9995    -0.0010     0.0000   159.4104   -41.1799     3.6423    -0.4067    -0.1194    -9.7290    14.7005    14.6907     0.0098     1.0000     1.0000     1.000
     51   142.0000      1.000   2395.000  13386.000      5.097    66.7975   -22.2454   -41.1655   119.9771     2.6000    -2.0000   -34.2897    39.0000    30.0000    30.0000    39.0000    10.0000    30.0000    30.0000    30.0000    86.2904     0.0000    -1.9995    -0.0010     0.0000   159.4104   -41.1799     3.6423    -0.4015    -0.1194    -9.7316    14.7005    14.6907     0.0098     1.0000     1.0000     1.000
     52   141.9000      1.000   2417.000  13366.000      5.090    66.7975   -22.2454   -41.1655   119.9771     2.6000    -2.0000   -34.2897    39.0000    30.0000    30.0000    39.0000    10.0000    30.0000    30.0000    30.0000    86.2904     0.0000    -1.9995    -0.0010     0.0000   159.4104   -41.1799     3.6423    -0.3963    -0.1194    -9.7343    14.7005    14.6907     0.0098     1.0000     1.0000     1.000
     53   141.8000      1.000   2488.000  13241.000      5.042    66.7975   -22.2454   -41.1655   119.9771     2.6000    -2.0000   -34.2897    39.0000    30.0000    30.0000    39.0000    10.0000    30.0000    30.0000    30.0000    86.2904     0.0000    -1.9995    -0.0010     0.0000   159.4104   -41.1799     3.6423    -0.3911    -0.1195    -9.7369    14.7005    14.6907     0.0098     1.0000     1.0000     1.000
     54   141.7000      1.000   2471.000  13454.000      5.123    66.7975   -22.2454   -41.1655   119.9771     2.6000    -2.0000   -34.2897    39.0000    30.0000    30.0000    39.0000    10.0000    30.0000    30.0000    30.0000    86.2904     0.0000    -1.9995    -0.0010     0.0000   159.4104   -41.1799     3.6423    -0.3859    -0.1195    -9.7394    14.7005    14.6907     0.0098     1.0000     1.0000     1.000
     55   141.6000      1.000   2553.000  13376.000      5.094    66.7975   -22.2454   -41.1655   119.9771     2.6000    -2.0000   -34.2897    39.0000    30.0000    30.0000    39.0000    10.0000    30.0000    30.0000    30.0000    86.2904     0.0000    -1.9995    -0.0010     0.0000   159.4104   -41.1799     3.6423    -0.3807    -0.1195    -9.7420    14.7005    14.6907     0.0098     1.0000     1.0000     1.000
     56   141.5000      1.000   2655.000  13476.000      5.132    66.7975   -22.2454   -41.1655   119.9771     2.6000    -2.0000   -34.2897    39.0000    30.0000    30.0000    39.0000    10.0000    30.0000    30.0000    30.0000    86.2904     0.0000    -1.9995    -0.0010     0.0000   159.4104   -41.1799     3.6423    -0.3755    -0.1196    -9.7445    14.7005    14.6907     0.0098     1.0000     1.0000     1.000
     57   141.4000      1.000   2778.000  13483.000      5.134    66.7975   -22.2454   -41.1655   119.9771     2.6000    -2.0000   -34.2897    39.0000    30.0000    30.0000    39.0000    10.0000    30.0000    30.0000    30.0000    86.2904     0.0000    -1.9995    -0.0010     0.0000   159.4104   -41.1799     3.6423    -0.3703    -0.1196    -9.7470    14.7005    14.6907     0.0098     1.0000     1.0000     1.000
     58   141.3000      1.000   2631.000  13376.000      5.094    66.7975   -22.2454   -41.1655   119.9771     2.6000    -2.0000   -34.2897    39.0000    30.0000    30.0000    39.0000    10.0000    30.0000    30.0000    30.0000    86.2904     0.0000    -1.9995    -0.0010     0.0000   159.4104   -41.1799     3.6423    -0.3651    -0.1196    -9.7494    14.7005    14.6907     0.0098     1.0000     1.0000     1.000
     59   141.2000      1.000   2762.000  13180.000      5.019    66.7975   -22.2454   -41.1655   119.9771     2.6000    -2.0000   -34.2897    39.0000    30.0000    30.0000    39.0000    10.0000    30.0000    30.0000    30.0000    86.2904     0.0000    -1.9995    -0.0010     0.0000   159.4104   -41.1799     3.6423    -0.3599    -0.1197    -9.7518    14.7005    14.6907     0.0098     1.0000     1.0000     1.000
     60   141.1000      1.000   2616.000  13410.000      5.107    66.7975   -22.2454   -41.1655   119.9771     2.6000    -2.0000   -34.2897    39.0000    30.0000    30.0000    39.0000    10.0000    30.0000    30.0000    30.0000    86.2904     0.0000    -1.9995    -0.0010     0.0000   159.4104   -41.1799     3.6423    -0.3547    -0.1197    -9.7542    14.7005    14.6907     0.0098     1.0000     1.0000     1.000
     61   141.0000      1.000   2651.000  13219.000      5.034    66.7975   -22.2454   -41.1655   119.9771     2.6000    -2.0000   -34.2897    39.0000    30.0000    30.0000    39.0000    10.0000    30.0000    30.0000    30.0000    86.2904     0.0000    -1.9995    -0.0010     0.0000   159.4104   -41.1799     3.6423    -0.3495    -0.1197    -9.7566    14.7005    14.6907     0.0098     1.0000     1.0000     1.000
     62   140.9000      1.000   2747.000  13440.000      5.118    66.7975   -22.2454   -41.1655   119.9771     2.6000    -2.0000   -34.2897    39.0000    30.0000    30.0000    39.0000    10.0000    30.0000    30.0000    30.0000    86.2904     0.0000    -1.9995    -0.0010     0.0000   159.4104   -41.1799     3.6423    -0.3443    -0.1197    -9.7589    14.7005    14.6907     0.0098     1.0000     1.0000     1.000
     63   140.8000      1.000   2695.000  13430.000      5.114    66.7975   -22.2454   -41.1655   119.9771     2.6000    -2.0000   -34.2897    39.0000    30.0000    30.0000    39.0000    10.0000    30.0000    30.0000    30.0000    86.2904     0.0000    -1.9995    -0.0010     0.0000   159.4104   -41.1799     3.6423    -0.3391    -0.1198    -9.7612    14.7005    14.6907     0.0098     1.0000     1.0000     1.000
     64   140.7000      1.000   2679.000  13392.000      5.100    66.7975   -22.2454   -41.1655   119.9771     2.6000    -2.0000   -34.2897    39.0000    30.0000    30.0000    39.0000    10.0000    30.0000    30.0000    30.0000    86.2904     0.0000    -1.9995    -0.0010     0.0000   159.4104   -41.1799     3.6423    -0.3339    -0.1198    -9.7635    14.7005    14.6907     0.0098     1.0000     1.0000     1.000
     65   140.6000      1.000   2797.000  13261.000      5.050    66.7975   -22.2454   -41.1655   119.9771     2.6000    -2.0000   -34.2897    39.0000    30.0000    30.0000    39.0000    10.0000    30.0000    30.0000    30.0000    86.2904     0.0000    -1.9995    -0.0010     0.0000   159.4104   -41.1799     3.6423    -0.3287    -0.1198    -9.7657    14.7005    14.6907     0.0098     1.0000     1.0000     1.000
     66   140.5000      1.000   2855.000  13357.000      5.086    66.7975   -22.2454   -41.1655   119.9771     2.6000    -2.0000   -34.2897    39.0000    30.0000    30.0000    39.0000    10.0000    30.0000    30.0000    30.0000    86.2904     0.0000    -1.9995    -0.0010     0.0000   159.4104   -41.1799     3.6423    -0.3235    -0.1199    -9.7679    14.7005    14.6907     0.0098     1.0000     1.0000     1.000
     67   140.4000      1.000   2846.000  13400.000      5.103    66.7975   -22.2454   -41.1655   119.9771     2.6000    -2.0000   -34.2897    39.0000    30.0000    30.0000    39.0000    10.0000    30.0000    30.0000    30.0000    86.2904     0.0000    -1.9995    -0.0010     0.0000   159.4104   -41.1799     3.6423    -0.3183    -0.1199    -9.7701    14.7005    14.6907     0.0098     1.0000     1.0000     1.000
     68   140.3000      1.000   2952.000  13360.000      5.088    66.7975   -22.2454   -41.1655   119.9771     2.6000    -2.0000   -34.2897    39.0000    30.0000    30.0000    39.0000    10.0000    30.0000    30.0000    30.0000    86.2904     0.0000    -1.9995    -0.0010     0.0000   159.4104   -41.1799     3.6423    -0.3131    -0.1199    -9.7723    14.7005    14.6907     0.0098     1.0000     1.0000     1.000
     69   140.2000      1.000   2827.000  13578.000      5.171    66.7975   -22.2454   -41.1655   119.9771     2.6000    -2.0000   -34.2897    39.0000    30.0000    30.0000    39.0000    10.0000    30.0000    30.0000    30.0000    86.2904     0.0000    -1.9995    -0.0010     0.0000   159.4104   -41.1799     3.6423    -0.3079    -0.1199    -9.7744    14.7005    14.6907     0.0098     1.0000     1.0000     1.000
     70   140.1000      1.000   2927.000  13594.000      5.177    66.7975   -22.2454   -41.1655   119.9771     2.6000    -2.0000   -34.2897    39.0000    30.0000    30.0000    39.0000    10.0000    30.0000    30.0000    30.0000    86.2904     0.0000    -1.9995    -0.0010     0.0000   159.4104   -41.1799     3.6423    -0.3027    -0.1200    -9.7765    14.7005    14.6907     0.0098     1.0000     1.0000     1.000
     71   140.0000      1.000   2945.000  13385.000      5.097    66.7975   -22.2454   -41.1655   119.9771     2.6000    -2.0000   -34.2897    39.0000    30.0000    30.0000    39.0000    10.0000    30.0000    30.0000    30.0000    86.2904     0.0000    -1.9995    -0.0010     0.0000   159.4104   -41.1799     3.6423    -0.2975    -0.1200    -9.7786    14.7005    14.6907     0.0098     1.0000     1.0000     1.000
     72   139.9000      1.000   2887.000  13501.000      5.141    66.7975   -22.2454   -41.1655   119.9771     2.6000    -2.0000   -34.2897    39.0000    30.0000    30.0000    39.0000    10.0000    30.0000    30.0000    30.0000    86.2904     0.0000    -1.9995    -0.0010     0.0000   159.4104   -41.1799     3.6423    -0.2923    -0.1200    -9.7806    14.7005    14.6907     0.0098     1.0000     1.0000     1.000
     73   139.8000      1.000   3022.000  13403.000      5.104    66.7975   -22.2454   -41.1655   119.9771     2.6000    -2.0000   -34.2897    39.0000    30.0000    30.0000    39.0000    10.0000    30.0000    30.0000    30.0000    86.2904     0.0000    -1.9995    -0.0010     0.0000   159.4104   -41.1799     3.6423    -0.2871    -0.1200    -9.7826    14.7005    14.6907     0.0098     1.0000     1.0000     1.000
     74   139.7000      1.000   3083.000  13352.000      5.085    66.7975   -22.2454   -41.1655   119.9771     2.6000    -2.0000   -34.2897    39.0000    30.0000    30.0000    39.0000    10.0000    30.0000    30.0000    30.0000    86.2904     0.0000    -1.9995    -0.0010     0.0000   159.4104   -41.1799     3.6423    -0.2819    -0.1201    -9.7846    14.7005    14.6907     0.0098     1.0000     1.0000     1.000
     75   139.6000      1.000   3159.000  13349.000      5.083    66.7975   -22.2454   -41.1655   119.9771     2.6000    -2.0000   -34.2897    39.0000    30.0000    30.0000    39.0000    10.0000    30.0000    30.0000    30.0000    86.2904     0.0000    -1.9995    -0.0010     0.0000   159.4104   -41.1799     3.6423    -0.2766    -0.1201    -9.7865    14.7005    14.6907     0.0098     1.0000     1.0000     1.000
     76   139.5000      1.000   3417.000  13313.000      5.070    66.7975   -22.2454   -41.1655   119.9771     2.6000    -2.0000   -34.2897    39.0000    30.0000    30.0000    39.0000    10.0000    30.0000    30.0000    30.0000    86.2904     0.0000    -1.9995    -0.0010     0.0000   159.4104   -41.1799     3.6423    -0.2714    -0.1201    -9.7884    14.7005    14.6907     0.0098     1.0000     1.0000     1.000
     77   139.4000      1.000   3637.000  13251.000      5.046    66.7975   -22.2454   -41.1655   119.9771     2.6000    -2.0000   -34.2897    39.0000    30.0000    30.0000    39.0000    10.0000    30.0000    30.0000    30.0000    86.2904     0.0000    -1.9995    -0.0010     0.0000   159.4104   -41.1799     3.6423    -0.2662    -0.1201    -9.7903    14.7005    14.6907     0.0098     1.0000     1.0000     1.000
     78   139.3000      1.000   3843.000  13580.000      5.171    66.7975   -22.2454   -41.1655   119.9771     2.6000    -2.0000   -34.2897    39.0000    30.0000    30.0000    39.0000    10.0000    30.0000    30.0000    30.0000    86.2904     0.0000    -1.9995    -0.0010     0.0000   159.4104   -41.1799     3.6423    -0.2610    -0.1202    -9.7922    14.7005    14.6907     0.0098     1.0000     1.0000     1.000
     79   139.2000      1.000   4304.000  13220.000      5.034    66.7975   -22.2454   -41.1655   119.9771     2.6000    -2.0000   -34.2897    39.0000    30.0000    30.0000    39.0000    10.0000    30.0000    30.0000    30.0000    86.2904     0.0000    -1.9995    -0.0010     0.0000   159.4104   -41.1799     3.6423    -0.2558    -0.1202    -9.7940    14.7005    14.6907     0.0098     1.0000     1.0000     1.000
     80   139.1000      1.000   4633.000  13515.000      5.147    66.7975   -22.2454   -41.1655   119.9771     2.6000    -2.0000   -34.2897    39.0000    30.0000    30.0000    39.0000    10.0000    30.0000    30.0000    30.0000    86.2904     0.0000    -1.9995    -0.0010     0.0000   159.4104   -41.1799     3.6423    -0.2506    -0.1202    -9.7958    14.7005    14.6907     0.0098     1.0000     1.0000     1.000
     81   139.0000      1.000   5168.000  13228.000      5.037    66.7975   -22.2454   -41.1655   119.9771     2.6000    -2.0000   -34.2897    39.0000    30.0000    30.0000    39.0000    10.0000    30.0000    30.0000    30.0000    86.2904     0.0000    -1.9995    -0.0010     0.0000   159.4104   -41.1799     3.6423    -0.2453    -0.1202    -9.7976    14.7005    14.6907     0.0098     1.0000     1.0000     1.000
     82   138.9000      1.000   5820.000  13330.000      5.076    66.7975   -22.2454   -41.1655   119.9771     2.6000    -2.0000   -34.2897    39.0000    30.0000    30.0000    39.0000    10.0000    30.0000    30.0000    30.0000    86.2904     0.0000    -1.9995    -0.0010     0.0000   159.4104   -41.1799     3.6423    -0.2401    -0.1202    -9.7993    14.7005    14.6907     0.0098     1.0000     1.0000     1.000
     83   138.8000      1.000   6523.000  13559.000      5.163    66.7975   -22.2454   -41.1655   119.9771     2.6000    -2.0000   -34.2897    39.0000    30.0000    30.0000    39.0000    10.0000    30.0000    30.0000    30.0000    86.2904     0.0000    -1.9995    -0.0010     0.0000   159.4104   -41.1799     3.6423    -0.2349    -0.1203    -9.8010    14.7005    14.6907     0.0098     1.0000     1.0000     1.000
     84   138.7000      1.000   7218.000  13561.000      5.164    66.7975   -22.2454   -41.1655   119.9771     2.6000    -2.0000   -34.2897    39.0000    30.0000    30.0000    39.0000    10.0000    30.0000    30.0000    30.0000    86.2904     0.0000    -1.9995    -0.0010     0.0000   159.4104   -41.1799     3.6423    -0.2297    -0.1203    -9.8027    14.7005    14.6907     0.0098     1.0000     1.0000     1.000
     85   138.6000      1.000   7893.000  13252.000      5.046    66.7975   -22.2454   -41.1655   119.9771     2.6000    -2.0000   -34.2897    39.0000    30.0000    30.0000    39.0000    10.0000    30.0000    30.0000    30.0000    86.2904     0.0000    -1.9995    -0.0010     0.0000   159.4104   -41.1799     3.6423    -0.2245    -0.1203    -9.8043    14.7005    14.6907     0.0098     1.0000     1.0000     1.000
     86   138.5000      1.000  10143.000  13550.000      5.160    66.7975   -22.2454   -41.1655   119.9771     2.6000    -2.0000   -34.2897    39.0000    30.0000    30.0000    39.0000    10.0000    30.0000    30.0000    30.0000    86.2904     0.0000    -1.9995    -0.0010     0.0000   159.4104   -41.1799     3.6423    -0.2192    -0.1203    -9.8059    14.7005    14.6907     0.0098     1.0000     1.0000     1.000
     87   138.4000      1.000  15554.000  13340.000      5.080    66.7975   -22.2454   -41.1655   119.9771     2.6000    -2.0000   -34.2897    39.0000    30.0000    30.0000    39.0000    10.0000    30.0000    30.0000    30.0000    86.2904     0.0000    -1.9995    -0.0010     0.0000   159.4104   -41.1799     3.6423    -0.2140    -0.1203    -9.8075    14.7005    14.6907     0.0098     1.0000     1.0000     1.000
     88   138.3000      1.000  26277.000  13347.000      5.083    66.7975   -22.2454   -41.1655   119.9771     2.6000    -2.0000   -34.2897    39.0000    30.0000    30.0000    39.0000    10.0000    30.0000    30.0000    30.0000    86.2904     0.0000    -1.9995    -0.0010     0.0000   159.4104   -41.1799     3.6423    -0.2088    -0.1204    -9.8091    14.7005    14.6907     0.0098     1.0000     1.0000     1.000
     89   138.2000      1.000  40755.000  13575.000      5.169    66.7975   -22.2454   -41.1655   119.9771     2.6000    -2.0000   -34.2897    39.0000    30.0000    30.0000    39.0000    10.0000    30.0000    30.0000    30.0000    86.2904     0.0000    -1.9995    -0.0010     0.0000   159.4104   -41.1799     3.6423    -0.2036    -0.1204    -9.8106    14.7005    14.6907     0.0098     1.0000     1.0000     1.000
     90   138.1000      1.000  54434.000  13382.000      5.096    66.7975   -22.2454   -41.1655   119.9771     2.6000    -2.0000   -34.2897    39.0000    30.0000    30.0000    39.0000    10.0000    30.0000    30.0000    30.0000    86.2904     0.0000    -1.9995    -0.0010     0.0000   159.4104   -41.1799     3.6423    -0.1983    -0.1204    -9.8121    14.7005    14.6907     0.0098     1.0000     1.0000     1.000
     91   138.0000      1.000  61903.000  13580.000      5.171    66.7975   -22.2454   -41.1655   119.9771     2.6000    -2.0000   -34.2897    39.0000    30.0000    30.0000    39.0000    10.0000    30.0000    30.0000    30.0000    86.2904     0.0000    -1.9995    -0.0010     0.0000   159.4104   -41.1799     3.6423    -0.1931    -0.1204    -9.8136    14.7005    14.6907     0.0098     1.0000     1.0000     1.000
     92   137.9000      1.000  63161.000  13603.000      5.180    66.7975   -22.2454   -41.1655   119.9771     2.6000    -2.0000   -34.2897    39.0000    30.0000    30.0000    39.0000    10.0000    30.0000    30.0000    30.0000    86.2904     0.0000    -1.9995    -0.0010     0.0000   159.4104   -41.1799     3.6423    -0.1879    -0.1204    -9.8150    14.7005    14.6907     0.0098     1.0000     1.0000     1.000
     93   137.8000      1.000  60362.000  13428.000      5.113    66.7975   -22.2454   -41.1655   119.9771     2.6000    -2.0000   -34.2897    39.0000    30.0000    30.0000    39.0000    10.0000    30.0000    30.0000    30.0000    86.2904     0.0000    -1.9995    -0.0010     0.0000   159.4104   -41.1799     3.6423    -0.1827    -0.1205    -9.8164    14.7005    14.6907     0.0098     1.0000     1.0000     1.000
     94   137.7000      1.000  56562.000  13442.000      5.119    66.7975   -22.2454   -41.1655   119.9771     2.6000    -2.0000   -34.2897    39.0000    30.0000    30.0000    39.0000    10.0000    30.0000    30.0000    30.0000    86.2904     0.0000    -1.9995    -0.0010     0.0000   159.4104   -41.1799     3.6423    -0.1774    -0.1205    -9.8178    14.7005    14.6907     0.0098     1.0000     1.0000     1.000
     95   137.6000      1.000  53082.000  13630.000      5.190    66.7975   -22.2454   -41.1655   119.9771     2.6000    -2.0000   -34.2897    39.0000    30.0000    30.0000    39.0000    10.0000    30.0000    30.0000    30.0000    86.2904     0.0000    -1.9995    -0.0010     0.0000   159.4104   -41.1799     3.6423    -0.1722    -0.1205    -9.8191    14.7005    14.6907     0.0098     1.0000     1.0000     1.000
     96   137.5000      1.000  49967.000  13450.000      5.122    66.7975   -22.2454   -41.1655   119.9771     2.6000    -2.0000   -34.2897    39.0000    30.0000    30.0000    39.0000    10.0000    30.0000    30.0000    30.0000    86.2904     0.0000    -1.9995    -0.0010     0.0000   159.4104   -41.1799     3.6423    -0.1670    -0.1205    -9.8205    14.7005    14.6907     0.0098     1.0000     1.0000     1.000
     97   137.4000      1.000  47592.000  13618.000      5.186    66.7975   -22.2454   -41.1655   119.9771     2.6000    -2.0000   -34.2897    39.0000    30.0000    30.0000    39.0000    10.0000    30.0000    30.0000    30.0000    86.2904     0.0000    -1.9995    -0.0010     0.0000   159.4104   -41.1799     3.6423    -0.1618    -0.1205    -9.8217    14.7005    14.6907     0.0098     1.0000     1.0000     1.000
     98   137.3000      1.000  45409.000  13528.000      5.152    66.7975   -22.2454   -41.1655   119.9771     2.6000    -2.0000   -34.2897    39.0000    30.0000    30.0000    39.0000    10.0000    30.0000    30.0000    30.0000    86.2904     0.0000    -1.9995    -0.0010     0.0000   159.4104   -41.1799     3.6423    -0.1565    -0.1205    -9.8230    14.7005    14.6907     0.0098     1.0000     1.0000     1.000
     99   137.2000      1.000  44092.000  13443.000      5.119    66.7975   -22.2454   -41.1655   119.9771     2.6000    -2.0000   -34.2897    39.0000    30.0000    30.0000    39.0000    10.0000    30.0000    30.0000    30.0000    86.2904     0.0000    -1.9995    -0.0010     0.0000   159.4104   -41.1799     3.6423    -0.1513    -0.1205    -9.8242    14.7005    14.6907     0.0098     1.0000     1.0000     1.000
    100   137.1000      1.000  43705.000  13547.000      5.159    66.7975   -22.2454   -41.1655   119.9771     2.6000    -2.0000   -34.2897    39.0000    30.0000    30.0000    39.0000    10.0000    30.0000    30.0000    30.0000    86.2904     0.0000    -1.9995    -0.0010     0.0000   159.4104   -41.1799     3.6423    -0.1461    -0.1206    -9.8254    14.7005    14.6907     0.0098     1.0000     1.0000     1.000
    101   137.0000      1.000  44125.000  13584.000      5.173    66.7975   -22.2454   -41.1655   119.9771     2.6000    -2.0000   -34.2897    39.0000    30.0000    30.0000    39.0000    10.0000    30.0000    30.0000    30.0000    86.2904     0.0000    -1.9995    -0.0010     0.0000   159.4104   -41.1799     3.6423    -0.1408    -0.1206    -9.8266    14.7005    14.6907     0.0098     1.0000     1.0000     1.000
    102   136.9000      1.000  45339.000  13520.000      5.149    66.7975   -22.2454   -41.1655   119.9771     2.6000    -2.0000   -34.2897    39.0000    30.0000    30.0000    39.0000    10.0000    30.0000    30.0000    30.0000    86.2904     0.0000    -1.9995    -0.0010     0.0000   159.4104   -41.1799     3.6423    -0.1356    -0.1206    -9.8277    14.7005    14.6907     0.0098     1.0000     1.0000     1.000
    103   136.8000      1.000  46916.000  13366.000      5.090    66.7975   -22.2454   -41.1655   119.9771     2.6000    -2.0000   -34.2897    39.0000    30.0000    30.0000    39.0000    10.0000    30.0000    30.0000    30.0000    86.2904     0.0000    -1.9995    -0.0010     0.0000   159.4104   -41.1799     3.6423    -0.1304    -0.1206    -9.8288    14.7005    14.6907     0.0098     1.0000     1.0000     1.000
    104   136.7000      1.000  47926.000  13625.000      5.188    66.7975   -22.2454   -41.1655   119.9771     2.6000    -2.0000   -34.2897    39.0000    30.0000    30.0000    39.0000    10.0000    30.0000    30.0000    30.0000    86.2904     0.0000    -1.9995    -0.0010     0.0000   159.4104   -41.1799     3.6423    -0.1251    -0.1206    -9.8299    14.7005    14.6907     0.0098     1.0000     1.0000     1.000
    105   136.6000      1.000  49231.000  13543.000      5.157    66.7975   -22.2454   -41.1655   119.9771     2.6000    -2.0000   -34.2897    39.0000    30.0000    30.0000    39.0000    10.0000    30.0000    30.0000    30.0000    86.2904     0.0000    -1.9995    -0.0010     0.0000   159.4104   -41.1799     3.6423    -0.1199    -0.1206    -9.8310    14.7005    14.6907     0.0098     1.0000     1.0000     1.000
    106   136.5000      1.000  50225.000  13516.000      5.147    66.7975   -22.2454   -41.1655   119.9771     2.6000    -2.0000   -34.2897    39.0000    30.0000    30.0000    39.0000    10.0000    30.0000    30.0000    30.0000    86.2904     0.0000    -1.9995    -0.0010     0.0000   159.4104   -41.1799     3.6423    -0.1147    -0.1206    -9.8320    14.7005    14.6907     0.0098     1.0000     1.0000     1.000
    107   136.4000      1.000  51823.000  13531.000      5.153    66.7975   -22.2454   -41.1655   119.9771     2.6000    -2.0000   -34.2897    39.0000    30.0000    30.0000    39.0000    10.0000    30.0000    30.0000    30.0000    86.2904     0.0000    -1.9995    -0.0010     0.0000   159.4104   -41.1799     3.6423    -0.1094    -0.1207    -9.8330    14.7005    14.6907     0.0098     1.0000     1.0000     1.000
    108   136.3000      1.000  54340.000  13478.000      5.133    66.7975   -22.2454   -41.1655   119.9771     2.6000    -2.0000   -34.2897    39.0000    30.0000    30.0000    39.0000    10.0000    30.0000    30.0000    30.0000    86.2904     0.0000    -1.9995    -0.0010     0.0000   159.4104   -41.1799     3.6423    -0.1042    -0.1207    -9.8339    14.7005    14.6907     0.0098     1.0000     1.0000     1.000
    109   136.2000      1.000  59982.000  13586.000      5.174    66.7975   -22.2454   -41.1655   119.9771     2.6000    -2.0000   -34.2897    39.0000    30.0000    30.0000    39.0000    10.0000    30.0000    30.0000    30.0000    86.2904     0.0000    -1.9995    -0.0010     0.0000   159.4104   -41.1799     3.6423    -0.0990    -0.1207    -9.8349    14.7005    14.6907     0.0098     1.0000     1.0000     1.000
    110   136.1000      1.000  68849.000  13812.000      5.260    66.7975   -22.2454   -41.1655   119.9771     2.6000    -2.0000   -34.2897    39.0000    30.0000    30.0000    39.0000    10.0000    30.0000    30.0000    30.0000    86.2904     0.0000    -1.9995    -0.0010     0.0000   159.4104   -41.1799     3.6423    -0.0937    -0.1207    -9.8357    14.7005    14.6907     0.0098     1.0000     1.0000     1.000
    111   136.0000      1.000  80093.000  13558.000      5.163    66.7975   -22.2454   -41.1655   119.9771     2.6000    -2.0000   -34.2897    39.0000    30.0000    30.0000    39.0000    10.0000    30.0000    30.0000    30.0000    86.2904     0.0000    -1.9995    -0.0010     0.0000   159.4104   -41.1799     3.6423    -0.0885    -0.1207    -9.8366    14.7005    14.6907     0.0098     1.0000     1.0000     1.000
    112   135.9000      1.000  93112.000  13705.000      5.219    66.7975   -22.2454   -41.1655   119.9771     2.6000    -2.0000   -34.2897    39.0000    30.0000    30.0000    39.0000    10.0000    30.0000    30.0000    30.0000    86.2904     0.0000    -1.9995    -0.0010     0.0000   159.4104   -41.1799     3.6423    -0.0833    -0.1207    -9.8375    14.7005    14.6907     0.0098     1.0000     1.0000     1.000
    113   135.8000      1.000 108570.000  13458.000      5.125    66.7975   -22.2454   -41.1655   119.9771     2.6000    -2.0000   -34.2897    39.0000    30.0000    30.0000    39.0000    10.0000    30.0000    30.0000    30.0000    86.2904     0.0000    -1.9995    -0.0010     0.0000   159.4104   -41.1799     3.6423    -0.0780    -0.1207    -9.8383    14.7005    14.6907     0.0098     1.0000     1.0000     1.000
    114   135.7000      1.000 123146.000  13568.000      5.167    66.7975   -22.2454   -41.1655   119.9771     2.6000    -2.0000   -34.2897    39.0000    30.0000    30.0000    39.0000    10.0000    30.0000    30.0000    30.0000    86.2904     0.0000    -1.9995    -0.0010     0.0000   159.4104   -41.1799     3.6423    -0.0728    -0.1207    -9.8390    14.7005    14.6907     0.0098     1.0000     1.0000     1.000
    115   135.6000      1.000 134106.000  13406.000      5.105    66.7975   -22.2454   -41.1655   119.9771     2.6000    -2.0000   -34.2897    39.0000    30.0000    30.0000    39.0000    10.0000    30.0000    30.0000    30.0000    86.2904     0.0000    -1.9995    -0.0010     0.0000   159.4104   -41.1799     3.6423    -0.0676    -0.1207    -9.8398    14.7005    14.6907     0.0098     1.0000     1.0000     1.000
    116   135.5000      1.000 137614.000  13703.000      5.218    66.7975   -22.2454   -41.1655   119.9771     2.6000    -2.0000   -34.2897    39.0000    30.0000    30.0000    39.0000    10.0000    30.0000    30.0000    30.0000    86.2904     0.0000    -1.9995    -0.0010     0.0000   159.4104   -41.1799     3.6423    -0.0623    -0.1207    -9.8405    14.7005    14.6907     0.0098     1.0000     1.0000     1.000
    117   135.4000      1.000 135583.000  13620.000      5.187    66.7975   -22.2454   -41.1655   119.9771     2.6000    -2.0000   -34.2897    39.0000    30.0000    30.0000    39.0000    10.0000    30.0000    30.0000    30.0000    86.2904     0.0000    -1.9995    -0.0010     0.0000   159.4104   -41.1799     3.6423    -0.0571    -0.1208    -9.8412    14.7005    14.6907     0.0098     1.0000     1.0000     1.000
    118   135.3000      1.000 130286.000  13393.000      5.100    66.7975   -22.2454   -41.1655   119.9771     2.6000    -2.0000   -34.2897    39.0000    30.0000    30.0000    39.0000    10.0000    30.0000    30.0000    30.0000    86.2904     0.0000    -1.9995    -0.0010     0.0000   159.4104   -41.1799     3.6423    -0.0519    -0.1208    -9.8419    14.7005    14.6907     0.0098     1.0000     1.0000     1.000
    119   135.2000      1.000 120506.000  13771.000      5.244    66.7975   -22.2454   -41.1655   119.9771     2.6000    -2.0000   -34.2897    39.0000    30.0000    30.0000    39.0000    10.0000    30.0000    30.0000    30.0000    86.2904     0.0000    -1.9995    -0.0010     0.0000   159.4104   -41.1799     3.6423    -0.0466    -0.1208    -9.8425    14.7005    14.6907     0.0098     1.0000     1.0000     1.000
    120   135.1000      1.000 105024.000  13343.000      5.081    66.7975   -22.2454   -41.1655   119.9771     2.6000    -2.0000   -34.2897    39.0000    30.0000    30.0000    39.0000    10.0000    30.0000    30.0000    30.0000    86.2904     0.0000    -1.9995    -0.0010     0.0000   159.4104   -41.1799     3.6423    -0.0414    -0.1208    -9.8431    14.7005    14.6907     0.0098     1.0000     1.0000     1.000
    121   135.0000      1.000  85746.000  13500.000      5.141    66.7975   -22.2454   -41.1655   119.9771     2.6000    -2.0000   -34.2897    39.0000    30.0000    30.0000    39.0000    10.0000    30.0000    30.0000    30.0000    86.2904     0.0000    -1.9995    -0.0010     0.0000   159.4104   -41.1799     3.6423    -0.0362    -0.1208    -9.8436    14.7005    14.6907     0.0098     1.0000     1.0000     1.000
    122   134.9000      1.000  65189.000  13383.000      5.096    66.7975   -22.2454   -41.1655   119.9771     2.6000    -2.0000   -34.2897    39.0000    30.0000    30.0000    39.0000    10.0000    30.0000    30.0000    30.0000    86.2904     0.0000    -1.9995    -0.0010     0.0000   159.4104   -41.1799     3.6423    -0.0309    -0.1208    -9.8442    14.7005    14.6907     0.0098     1.0000     1.0000     1.000
    123   134.8000      1.000  48747.000  13356.000      5.086    66.7975   -22.2454   -41.1655   119.9771     2.6000    -2.0000   -34.2897    39.0000    30.0000    30.0000    39.0000    10.0000    30.0000    30.0000    30.0000    86.2904     0.0000    -1.9995    -0.0010     0.0000   159.4104   -41.1799     3.6423    -0.0257    -0.1208    -9.8447    14.7005    14.6907     0.0098     1.0000     1.0000     1.000
    124   134.7000      1.000  37281.000  13487.000      5.136    66.7975   -22.2454   -41.1655   119.9771     2.6000    -2.0000   -34.2897    39.0000    30.0000    30.0000    39.0000    10.0000    30.0000    30.0000    30.0000    86.2904     0.0000    -1.9995    -0.0010     0.0000   159.4104   -41.1799     3.6423    -0.0204    -0.1208    -9.8452    14.7005    14.6907     0.0098     1.0000     1.0000     1.000
    125   134.6000      1.000  30148.000  13387.000      5.098    66.7975   -22.2454   -41.1655   119.9771     2.6000    -2.0000   -34.2897    39.0000    30.0000    30.0000    39.0000    10.0000    30.0000    30.0000    30.0000    86.2904     0.0000    -1.9995    -0.0010     0.0000   159.4104   -41.1799     3.6423    -0.0152    -0.1208    -9.8456    14.7005    14.6907     0.0098     1.0000     1.0000     1.000
    126   134.5000      1.000  25116.000  13341.000      5.080    66.7975   -22.2454   -41.1655   119.9771     2.6000    -2.0000   -34.2897    39.0000    30.0000    30.0000    39.0000    10.0000    30.0000    30.0000    30.0000    86.2904     0.0000    -1.9995    -0.0010     0.0000   159.4104   -41.1799     3.6423    -0.0100    -0.1208    -9.8460    14.7005    14.6907     0.0098     1.0000     1.0000     1.000
    127   134.4000      1.000  21370.000  13296.000      5.063    66.7975   -22.2454   -41.1655   119.9771     2.6000    -2.0000   -34.2897    39.0000    30.0000    30.0000    39.0000    10.0000    30.0000    30.0000    30.0000    86.2904     0.0000    -1.9995    -0.0010     0.0000   159.4104   -41.1799     3.6423    -0.0047    -0.1208    -9.8464    14.7005    14.6907     0.0098     1.0000     1.0000     1.000
    128   134.3000      1.000  18401.000  13454.000      5.123    66.7975   -22.2454   -41.1655   119.9771     2.6000    -2.0000   -34.2897    39.0000    30.0000    30.0000    39.0000    10.0000    30.0000    30.0000    30.0000    86.2904     0.0000    -1.9995    -0.0010     0.0000   159.4104   -41.1799     3.6423     0.0005    -0.1208    -9.8468    14.7005    14.6907     0.0098     1.0000     1.0000     1.000
    129   134.2000      1.000  15990.000  13430.000      5.114    66.7975   -22.2454   -41.1655   119.9771     2.6000    -2.0000   -34.2897    39.0000    30.0000    30.0000    39.0000    10.0000    30.0000    30.0000    30.0000    86.2904     0.0000    -1.9995    -0.0010     0.0000   159.4104   -41.1799     3.6423     0.0057    -0.1208    -9.8471    14.7005    14.6907     0.0098     1.0000     1.0000     1.000
    130   134.1000      1.000  14406.000  13385.000      5.097    66.7975   -22.2454   -41.1655   119.9771     2.6000    -2.0000   -34.2897    39.0000    30.0000    30.0000    39.0000    10.0000    30.0000    30.0000    30.0000    86.2904     0.0000    -1.9995    -0.0010     0.0000   159.4104   -41.1799     3.6423     0.0110    -0.1208    -9.8474    14.7005    14.6907     0.0098     1.0000     1.0000     1.000
    131   134.0000      1.000  12919.000  13514.000      5.146    66.7975   -22.2454   -41.1655   119.9771     2.6000    -2.0000   -34.2897    39.0000    30.0000    30.0000    39.0000    10.0000    30.0000    30.0000    30.0000    86.2904     0.0000    -1.9995    -0.0010     0.0000   159.4104   -41.1799     3.6423     0.0162    -0.1208    -9.8477    14.7005    14.6907     0.0098     1.0000     1.0000     1.000
    132   133.9000      1.000  11601.000  13468.000      5.129    66.7975   -22.2454   -41.1655   119.9771     2.6000    -2.0000   -34.2897    39.0000    30.0000    30.0000    39.0000    10.0000    30.0000    30.0000    30.0000    86.2904     0.0000    -1.9995    -0.0010     0.0000   159.4104   -41.1799     3.6423     0.0214    -0.1208    -9.8479    14.7005    14.6907     0.0098     1.0000     1.0000     1.000
    133   133.8000      1.000  10217.000  13409.000      5.106    66.7975   -22.2454   -41.1655   119.9771     2.6000    -2.0000   -34.2897    39.0000    30.0000    30.0000    39.0000    10.0000    30.0000    30.0000    30.0000    86.2904     0.0000    -1.9995    -0.0010     0.0000   159.4104   -41.1799     3.6423     0.0267    -0.1208    -9.8481    14.7005    14.6907     0.0098     1.0000     1.0000     1.000
    134   133.7000      1.000   8925.000  13468.000      5.129    66.7975   -22.2454   -41.1655   119.9771     2.6000    -2.0000   -34.2897    39.0000    30.0000    30.0000    39.0000    10.0000    30.0000    30.0000    30.0000    86.2904     0.0000    -1.9995    -0.0010     0.0000   159.4104   -41.1799     3.6423     0.0319    -0.1208    -9.8483    14.7005    14.6907     0.0098     1.0000     1.0000     1.000
    135   133.6000      1.000   8202.000  13310.000      5.069    66.7975   -22.2454   -41.1655   119.9771     2.6000    -2.0000   -34.2897    39.0000    30.0000    30.0000    39.0000    10.0000    30.0000    30.0000    30.0000    86.2904     0.0000    -1.9995    -0.0010     0.0000   159.4104   -41.1799     3.6423     0.0371    -0.1208    -9.8485    14.7005    14.6907     0.0098     1.0000     1.0000     1.000
    136   133.5000      1.000   7452.000  13278.000      5.056    66.7975   -22.2454   -41.1655   119.9771     2.6000    -2.0000   -34.2897    39.0000    30.0000    30.0000    39.0000    10.0000    30.0000    30.0000    30.0000    86.2904     0.0000    -1.9995    -0.0010     0.0000   159.4104   -41.1799     3.6423     0.0424    -0.1208    -9.8486    14.7005    14.6907     0.0098     1.0000     1.0000     1.000
    137   133.4000      1.000   7138.000  13488.000      5.136    66.7975   -22.2454   -41.1655   119.9771     2.6000    -2.0000   -34.2897    39.0000    30.0000    30.0000    39.0000    10.0000    30.0000    30.0000    30.0000    86.2904     0.0000    -1.9995    -0.0010     0.0000   159.4104   -41.1799     3.6423     0.0476    -0.1208    -9.8487    14.7005    14.6907     0.0098     1.0000     1.0000     1.000
    138   133.3000      1.000   6613.000  13369.000      5.091    66.7975   -22.2454   -41.1655   119.9771     2.6000    -2.0000   -34.2897    39.0000    30.0000    30.0000    39.0000    10.0000    30.0000    30.0000    30.0000    86.2904     0.0000    -1.9995    -0.0010     0.0000   159.4104   -41.1799     3.6423     0.0529    -0.1208    -9.8487    14.7005    14.6907     0.0098     1.0000     1.0000     1.000
    139   133.2000      1.000   6540.000  13122.000      4.997    66.7975   -22.2454   -41.1655   119.9771     2.6000    -2.0000   -34.2897    39.0000    30.0000    30.0000    39.0000    10.0000    30.0000    30.0000    30.0000    86.2904     0.0000    -1.9995    -0.0010     0.0000   159.4104   -41.1799     3.6423     0.0581    -0.1208    -9.8487    14.7005    14.6907     0.0098     1.0000     1.0000     1.000
    140   133.1000      1.000   6105.000  13339.000      5.080    66.7975   -22.2454   -41.1655   119.9771     2.6000    -2.0000   -34.2897    39.0000    30.0000    30.0000    39.0000    10.0000    30.0000    30.0000    30.0000    86.2904     0.0000    -1.9995    -0.0010     0.0000   159.4104   -41.1799     3.6423     0.0633    -0.1208    -9.8487    14.7005    14.6907     0.0098     1.0000     1.0000     1.000
    141   133.0000      1.000   5929.000  13381.000      5.096    66.7975   -22.2454   -41.1655   119.9771     2.6000    -2.0000   -34.2897    39.0000    30.0000    30.0000    39.0000    10.0000    30.0000    30.0000    30.0000    86.2904     0.0000    -1.9995    -0.0010     0.0000   159.4104   -41.1799     3.6423     0.0686    -0.1208    -9.8487    14.7005    14.6907     0.0098     1.0000     1.0000     1.000
    142   132.9000      1.000   5530.000  13473.000      5.131    66.7975   -22.2454   -41.1655   119.9771     2.6000    -2.0000   -34.2897    39.0000    30.0000    30.0000    39.0000    10.0000    30.0000    30.0000    30.0000    86.2904     0.0000    -1.9995    -0.0010     0.0000   159.4104   -41.1799     3.6423     0.0738    -0.1208    -9.8487    14.7005    14.6907     0.0098     1.0000     1.0000     1.000
    143   132.8000      1.000   5280.000  13622.000      5.187    66.7975   -22.2454   -41.1655   119.9771     2.6000    -2.0000   -34.2897    39.0000    30.0000    30.0000    39.0000    10.0000    30.0000    30.0000    30.0000    86.2904     0.0000    -1.9995    -0.0010     0.0000   159.4104   -41.1799     3.6423     0.0790    -0.1208    -9.8486    14.7005    14.6907     0.0098     1.0000     1.0000     1.000
    144   132.7000      1.000   4862.000  13499.000      5.141    66.7975   -22.2454   -41.1655   119.9771     2.6000    -2.0000   -34.2897    39.0000    30.0000    30.0000    39.0000    10.0000    30.0000    30.0000    30.0000    86.2904     0.0000    -1.9995    -0.0010     0.0000   159.4104   -41.1799     3.6423     0.0843    -0.1208    -9.8484    14.7005    14.6907     0.0098     1.0000     1.0000     1.000
    145   132.6000      1.000   4557.000  13444.000      5.120    66.7975   -22.2454   -41.1655   119.9771     2.6000    -2.0000   -34.2897    39.0000    30.0000    30.0000    39.0000    10.0000    30.0000    30.0000    30.0000    86.2904     0.0000    -1.9995    -0.0010     0.0000   159.4104   -41.1799     3.6423     0.0895    -0.1208    -9.8483    14.7005    14.6907     0.0098     1.0000     1.0000     1.000
    146   132.5000      1.000   4259.000  13449.000      5.121    66.7975   -22.2454   -41.1655   119.9771     2.6000    -2.0000   -34.2897    39.0000    30.0000    30.0000    39.0000    10.0000    30.0000    30.0000    30.0000    86.2904     0.0000    -1.9995    -0.0010     0.0000   159.4104   -41.1799     3.6423     0.0947    -0.1208    -9.8481    14.7005    14.6907     0.0098     1.0000     1.0000     1.000
    147   132.4000      1.000   3931.000  13371.000      5.092    66.7975   -22.2454   -41.1655   119.9771     2.6000    -2.0000   -34.2897    39.0000    30.0000    30.0000    39.0000    10.0000    30.0000    30.0000    30.0000    86.2904     0.0000    -1.9995    -0.0010     0.0000   159.4104   -41.1799     3.6423     0.1000    -0.1208    -9.8479    14.7005    14.6907     0.0098     1.0000     1.0000     1.000
    148   132.3000      1.000   3771.000  13510.000      5.145    66.7975   -22.2454   -41.1655   119.9771     2.6000    -2.0000   -34.2897    39.0000    30.0000    30.0000    39.0000    10.0000    30.0000    30.0000    30.0000    86.2904     0.0000    -1.9995    -0.0010     0.0000   159.4104   -41.1799     3.6423     0.1052    -0.1208    -9.8477    14.7005    14.6907     0.0098     1.0000     1.0000     1.000
    149   132.2000      1.000   3521.000  13571.000      5.168    66.7975   -22.2454   -41.1655   119.9771     2.6000    -2.0000   -34.2897    39.0000    30.0000    30.0000    39.0000    10.0000    30.0000    30.0000    30.0000    86.2904     0.0000    -1.9995    -0.0010     0.0000   159.4104   -41.1799     3.6423     0.1104    -0.1208    -9.8474    14.7005    14.6907     0.0098     1.0000     1.0000     1.000
    150   132.1000      1.000   3349.000  13437.000      5.117    66.7975   -22.2454   -41.1655   119.9771     2.6000    -2.0000   -34.2897    39.0000    30.0000    30.0000    39.0000    10.0000    30.0000    30.0000    30.0000    86.2904     0.0000    -1.9995    -0.0010     0.0000   159.4104   -41.1799     3.6423     0.1157    -0.1208    -9.8471    14.7005    14.6907     0.0098     1.0000     1.0000     1.000
    151   132.0000      1.000   3279.000  13299.000      5.064    66.7975   -22.2454   -41.1655   119.9771     2.6000    -2.0000   -34.2897    39.0000    30.0000    30.0000    39.0000    10.0000    30.0000    30.0000    30.0000    86.2904     0.0000    -1.9995    -0.0010     0.0000   159.4104   -41.1799     3.6423     0.1209    -0.1208    -9.8467    14.7005    14.6907     0.0098     1.0000     1.0000     1.000
    152   131.9000      1.000   3207.000  13412.000      5.107    66.7975   -22.2454   -41.1655   119.9771     2.6000    -2.0000   -34.2897    39.0000    30.0000    30.0000    39.0000    10.0000    30.0000    30.0000    30.0000    86.2904     0.0000    -1.9995    -0.0010     0.0000   159.4104   -41.1799     3.6423     0.1261    -0.1208    -9.8464    14.7005    14.6907     0.0098     1.0000     1.0000     1.000
    153   131.8000      1.000   3226.000  13433.000      5.115    66.7975   -22.2454   -41.1655   119.9771     2.6000    -2.0000   -34.2897    39.0000    30.0000    30.0000    39.0000    10.0000    30.0000    30.0000    30.0000    86.2904     0.0000    -1.9995    -0.0010     0.0000   159.4104   -41.1799     3.6423     0.1314    -0.1208    -9.8460    14.7005    14.6907     0.0098     1.0000     1.0000     1.000
    154   131.7000      1.000   3219.000  13491.000      5.137    66.7975   -22.2454   -41.1655   119.9771     2.6000    -2.0000   -34.2897    39.0000    30.0000    30.0000    39.0000    10.0000    30.0000    30.0000    30.0000    86.2904     0.0000    -1.9995    -0.0010     0.0000   159.4104   -41.1799     3.6423     0.1366    -0.1208    -9.8456    14.7005    14.6907     0.0098     1.0000     1.0000     1.000
    155   131.6000      1.000   3142.000  13320.000      5.072    66.7975   -22.2454   -41.1655   119.9771     2.6000    -2.0000   -34.2897    39.0000    30.0000    30.0000    39.0000    10.0000    30.0000    30.0000    30.0000    86.2904     0.0000    -1.9995    -0.0010     0.0000   159.4104   -41.1799     3.6423     0.1418    -0.1208    -9.8451    14.7005    14.6907     0.0098     1.0000     1.0000     1.000
    156   131.5000      1.000   3153.000  13213.000      5.032    66.7975   -22.2454   -41.1655   119.9771     2.6000    -2.0000   -34.2897    39.0000    30.0000    30.0000    39.0000    10.0000    30.0000    30.0000    30.0000    86.2904     0.0000    -1.9995    -0.0010     0.0000   159.4104   -41.1799     3.6423     0.1471    -0.1208    -9.8446    14.7005    14.6907     0.0098     1.0000     1.0000     1.000
    157   131.4000      1.000   3008.000  13392.000      5.100    66.7975   -22.2454   -41.1655   119.9771     2.6000    -2.0000   -34.2897    39.0000    30.0000    30.0000    39.0000    10.0000    30.0000    30.0000    30.0000    86.2904     0.0000    -1.9995    -0.0010     0.0000   159.4104   -41.1799     3.6423     0.1523    -0.1208    -9.8441    14.7005    14.6907     0.0098     1.0000     1.0000     1.000
    158   131.3000      1.000   2930.000  13401.000      5.103    66.7975   -22.2454   -41.1655   119.9771     2.6000    -2.0000   -34.2897    39.0000    30.0000    30.0000    39.0000    10.0000    30.0000    30.0000    30.0000    86.2904     0.0000    -1.9995    -0.0010     0.0000   159.4104   -41.1799     3.6423     0.1575    -0.1208    -9.8436    14.7005    14.6907     0.0098     1.0000     1.0000     1.000
    159   131.2000      1.000   2970.000  13412.000      5.107    66.7975   -22.2454   -41.1655   119.9771     2.6000    -2.0000   -34.2897    39.0000    30.0000    30.0000    39.0000    10.0000    30.0000    30.0000    30.0000    86.2904     0.0000    -1.9995    -0.0010     0.0000   159.4104   -41.1799     3.6423     0.1627    -0.1208    -9.8430    14.7005    14.6907     0.0098     1.0000     1.0000     1.000
    160   131.1000      1.000   3201.000  13618.000      5.186    66.7975   -22.2454   -41.1655   119.9771     2.6000    -2.0000   -34.2897    39.0000    30.0000    30.0000    39.0000    10.0000    30.0000    30.0000    30.0000    86.2904     0.0000    -1.9995    -0.0010     0.0000   159.4104   -41.1799     3.6423     0.1680    -0.1208    -9.8424    14.7005    14.6907     0.0098     1.0000     1.0000     1.000
    161   131.0000      1.000   4167.000  13336.000      5.078    66.7975   -22.2454   -41.1655   119.9771     2.6000    -2.0000   -34.2897    39.0000    30.0000    30.0000    39.0000    10.0000    30.0000    30.0000    30.0000    86.2904     0.0000    -1.9995    -0.0010     0.0000   159.4104   -41.1799     3.6423     0.1732    -0.1208    -9.8418    14.7005    14.6907     0.0098     1.0000     1.0000     1.000
    162   130.9000      1.000   5978.000  13568.000      5.167    66.7975   -22.2454   -41.1655   119.9771     2.6000    -2.0000   -34.2897    39.0000    30.0000    30.0000    39.0000    10.0000    30.0000    30.0000    30.0000    86.2904     0.0000    -1.9995    -0.0010     0.0000   159.4104   -41.1799     3.6423     0.1784    -0.1208    -9.8411    14.7005    14.6907     0.0098     1.0000     1.0000     1.000
    163   130.8000      1.000   8753.000  13298.000      5.064    66.7975   -22.2454   -41.1655   119.9771     2.6000    -2.0000   -34.2897    39.0000    30.0000    30.0000    39.0000    10.0000    30.0000    30.0000    30.0000    86.2904     0.0000    -1.9995    -0.0010     0.0000   159.4104   -41.1799     3.6423     0.1837    -0.1207    -9.8404    14.7005    14.6907     0.0098     1.0000     1.0000     1.000
    164   130.7000      1.000  11637.000  13349.000      5.083    66.7975   -22.2454   -41.1655   119.9771     2.6000    -2.0000   -34.2897    39.0000    30.0000    30.0000    39.0000    10.0000    30.0000    30.0000    30.0000    86.2904     0.0000    -1.9995    -0.0010     0.0000   159.4104   -41.1799     3.6423     0.1889    -0.1207    -9.8397    14.7005    14.6907     0.0098     1.0000     1.0000     1.000
    165   130.6000      1.000  13232.000  13386.000      5.097    66.7975   -22.2454   -41.1655   119.9771     2.6000    -2.0000   -34.2897    39.0000    30.0000    30.0000    39.0000    10.0000    30.0000    30.0000    30.0000    86.2904     0.0000    -1.9995    -0.0010     0.0000   159.4104   -41.1799     3.6423     0.1941    -0.1207    -9.8390    14.7005    14.6907     0.0098     1.0000     1.0000     1.000
    166   130.5000      1.000  12516.000  13348.000      5.083    66.7975   -22.2454   -41.1655   119.9771     2.6000    -2.0000   -34.2897    39.0000    30.0000    30.0000    39.0000    10.0000    30.0000    30.0000    30.0000    86.2904     0.0000    -1.9995    -0.0010     0.0000   159.4104   -41.1799     3.6423     0.1993    -0.1207    -9.8382    14.7005    14.6907     0.0098     1.0000     1.0000     1.000
    167   130.4000      1.000  10181.000  13396.000      5.101    66.7975   -22.2454   -41.1655   119.9771     2.6000    -2.0000   -34.2897    39.0000    30.0000    30.0000    39.0000    10.0000    30.0000    30.0000    30.0000    86.2904     0.0000    -1.9995    -0.0010     0.0000   159.4104   -41.1799     3.6423     0.2046    -0.1207    -9.8374    14.7005    14.6907     0.0098     1.0000     1.0000     1.000
    168   130.3000      1.000   7898.000  13374.000      5.093    66.7975   -22.2454   -41.1655   119.9771     2.6000    -2.0000   -34.2897    39.0000    30.0000    30.0000    39.0000    10.0000    30.0000    30.0000    30.0000    86.2904     0.0000    -1.9995    -0.0010     0.0000   159.4104   -41.1799     3.6423     0.2098    -0.1207    -9.8365    14.7005    14.6907     0.0098     1.0000     1.0000     1.000
    169   130.2000      1.000   5764.000  13215.000      5.032    66.7975   -22.2454   -41.1655   119.9771     2.6000    -2.0000   -34.2897    39.0000    30.0000    30.0000    39.0000    10.0000    30.0000    30.0000    30.0000    86.2904     0.0000    -1.9995    -0.0010     0.0000   159.4104   -41.1799     3.6423     0.2150    -0.1207    -9.8357    14.7005    14.6907     0.0098     1.0000     1.0000     1.000
    170   130.1000      1.000   4256.000  13300.000      5.065    66.7975   -22.2454   -41.1655   119.9771     2.6000    -2.0000   -34.2897    39.0000    30.0000    30.0000    39.0000    10.0000    30.0000    30.0000    30.0000    86.2904     0.0000    -1.9995    -0.0010     0.0000   159.4104   -41.1799     3.6423     0.2202    -0.1207    -9.8348    14.7005    14.6907     0.0098     1.0000     1.0000     1.000
    171   130.0000      1.000   3400.000  13244.000      5.043    66.7975   -22.2454   -41.1655   119.9771     2.6000    -2.0000   -34.2897    39.0000    30.0000    30.0000    39.0000    10.0000    30.0000    30.0000    30.0000    86.2904     0.0000    -1.9995    -0.0010     0.0000   159.4104   -41.1799     3.6423     0.2254    -0.1207    -9.8338    14.7005    14.6907     0.0098     1.0000     1.0000     1.000
    172   129.9000      1.000   2794.000  13162.000      5.012    66.7975   -22.2454   -41.1655   119.9771     2.6000    -2.0000   -34.2897    39.0000    30.0000    30.0000    39.0000    10.0000    30.0000    30.0000    30.0000    86.2904     0.0000    -1.9995    -0.0010     0.0000   159.4104   -41.1799     3.6423     0.2307    -0.1207    -9.8329    14.7005    14.6907     0.0098     1.0000     1.0000     1.000
    173   129.8000      1.000   2654.000  13401.000      5.103    66.7975   -22.2454   -41.1655   119.9771     2.6000    -2.0000   -34.2897    39.0000    30.0000    30.0000    39.0000    10.0000    30.0000    30.0000    30.0000    86.2904     0.0000    -1.9995    -0.0010     0.0000   159.4104   -41.1799     3.6423     0.2359    -0.1206    -9.8319    14.7005    14.6907     0.0098     1.0000     1.0000     1.000
    174   129.7000      1.000   2446.000  13351.000      5.084    66.7975   -22.2454   -41.1655   119.9771     2.6000    -2.0000   -34.2897    39.0000    30.0000    30.0000    39.0000    10.0000    30.0000    30.0000    30.0000    86.2904     0.0000    -1.9995    -0.0010     0.0000   159.4104   -41.1799     3.6423     0.2411    -0.1206    -9.8308    14.7005    14.6907     0.0098     1.0000     1.0000     1.000
    175   129.6000      1.000   2294.000  13331.000      5.077    66.7975   -22.2454   -41.1655   119.9771     2.6000    -2.0000   -34.2897    39.0000    30.0000    30.0000    39.0000    10.0000    30.0000    30.0000    30.0000    86.2904     0.0000    -1.9995    -0.0010     0.0000   159.4104   -41.1799     3.6423     0.2463    -0.1206    -9.8298    14.7005    14.6907     0.0098     1.0000     1.0000     1.000
    176   129.5000      1.000   2106.000  13532.000      5.153    66.7975   -22.2454   -41.1655   119.9771     2.6000    -2.0000   -34.2897    39.0000    30.0000    30.0000    39.0000    10.0000    30.0000    30.0000    30.0000    86.2904     0.0000    -1.9995    -0.0010     0.0000   159.4104   -41.1799     3.6423     0.2515    -0.1206    -9.8287    14.7005    14.6907     0.0098     1.0000     1.0000     1.000
    177   129.4000      1.000   1967.000  13394.000      5.101    66.7975   -22.2454   -41.1655   119.9771     2.6000    -2.0000   -34.2897    39.0000    30.0000    30.0000    39.0000    10.0000    30.0000    30.0000    30.0000    86.2904     0.0000    -1.9995    -0.0010     0.0000   159.4104   -41.1799     3.6423     0.2568    -0.1206    -9.8276    14.7005    14.6907     0.0098     1.0000     1.0000     1.000
    178   129.3000      1.000   1873.000  13466.000      5.128    66.7975   -22.2454   -41.1655   119.9771     2.6000    -2.0000   -34.2897    39.0000    30.0000    30.0000    39.0000    10.0000    30.0000    30.0000    30.0000    86.2904     0.0000    -1.9995    -0.0010     0.0000   159.4104   -41.1799     3.6423     0.2620    -0.1206    -9.8265    14.7005    14.6907     0.0098     1.0000     1.0000     1.000
    179   129.2000      1.000   1654.000  13272.000      5.054    66.7975   -22.2454   -41.1655   119.9771     2.6000    -2.0000   -34.2897    39.0000    30.0000    30.0000    39.0000    10.0000    30.0000    30.0000    30.0000    86.2904     0.0000    -1.9995    -0.0010     0.0000   159.4104   -41.1799     3.6423     0.2672    -0.1206    -9.8253    14.7005    14.6907     0.0098     1.0000     1.0000     1.000
    180   129.1000      1.000   1649.000  13374.000      5.093    66.7975   -22.2454   -41.1655   119.9771     2.6000    -2.0000   -34.2897    39.0000    30.0000    30.0000    39.0000    10.0000    30.0000    30.0000    30.0000    86.2904     0.0000    -1.9995    -0.0010     0.0000   159.4104   -41.1799     3.6423     0.2724    -0.1205    -9.8241    14.7005    14.6907     0.0098     1.0000     1.0000     1.000
    181   129.0000      1.000   1634.000  13365.000      5.089    66.7975   -22.2454   -41.1655   119.9771     2.6000    -2.0000   -34.2897    39.0000    30.0000    30.0000    39.0000    10.0000    30.0000    30.0000    30.0000    86.2904     0.0000    -1.9995    -0.0010     0.0000   159.4104   -41.1799     3.6423     0.2776    -0.1205    -9.8229    14.7005    14.6907     0.0098     1.0000     1.0000     1.000
    182   128.9000      1.000   1717.000  13288.000      5.060    66.7975   -22.2454   -41.1655   119.9771     2.6000    -2.0000   -34.2897    39.0000    30.0000    30.0000    39.0000    10.0000    30.0000    30.0000    30.0000    86.2904     0.0000    -1.9995    -0.0010     0.0000   159.4104   -41.1799     3.6423     0.2828    -0.1205    -9.8216    14.7005    14.6907     0.0098     1.0000     1.0000     1.000
    183   128.8000      1.000   1652.000  13243.000      5.043    66.7975   -22.2454   -41.1655   119.9771     2.6000    -2.0000   -34.2897    39.0000    30.0000    30.0000    39.0000    10.0000    30.0000    30.0000    30.0000    86.2904     0.0000    -1.9995    -0.0010     0.0000   159.4104   -41.1799     3.6423     0.2881    -0.1205    -9.8203    14.7005    14.6907     0.0098     1.0000     1.0000     1.000
    184   128.7000      1.000   1610.000  13290.000      5.061    66.7975   -22.2454   -41.1655   119.9771     2.6000    -2.0000   -34.2897    39.0000    30.0000    30.0000    39.0000    10.0000    30.0000    30.0000    30.0000    86.2904     0.0000    -1.9995    -0.0010     0.0000   159.4104   -41.1799     3.6423     0.2933    -0.1205    -9.8190    14.7005    14.6907     0.0098     1.0000     1.0000     1.000
    185   128.6000      1.000   1548.000  13373.000      5.093    66.7975   -22.2454   -41.1655   119.9771     2.6000    -2.0000   -34.2897    39.0000    30.0000    30.0000    39.0000    10.0000    30.0000    30.0000    30.0000    86.2904     0.0000    -1.9995    -0.0010     0.0000   159.4104   -41.1799     3.6423     0.2985    -0.1205    -9.8176    14.7005    14.6907     0.0098     1.0000     1.0000     1.000
    186   128.5000      1.000   1459.000  13440.000      5.118    66.7975   -22.2454   -41.1655   119.9771     2.6000    -2.0000   -34.2897    39.0000    30.0000    30.0000    39.0000    10.0000    30.0000    30.0000    30.0000    86.2904     0.0000    -1.9995    -0.0010     0.0000   159.4104   -41.1799     3.6423     0.3037    -0.1205    -9.8163    14.7005    14.6907     0.0098     1.0000     1.0000     1.000
    187   128.4000      1.000   1434.000  13539.000      5.156    66.7975   -22.2454   -41.1655   119.9771     2.6000    -2.0000   -34.2897    39.0000    30.0000    30.0000    39.0000    10.0000    30.0000    30.0000    30.0000    86.2904     0.0000    -1.9995    -0.0010     0.0000   159.4104   -41.1799     3.6423     0.3089    -0.1204    -9.8148    14.7005    14.6907     0.0098     1.0000     1.0000     1.000
    188   128.3000      1.000   1291.000  13523.000      5.150    66.7975   -22.2454   -41.1655   119.9771     2.6000    -2.0000   -34.2897    39.0000    30.0000    30.0000    39.0000    10.0000    30.0000    30.0000    30.0000    86.2904     0.0000    -1.9995    -0.0010     0.0000   159.4104   -41.1799     3.6423     0.3141    -0.1204    -9.8134    14.7005    14.6907     0.0098     1.0000     1.0000     1.000
    189   128.2000      1.000   1238.000  13606.000      5.181    66.7975   -22.2454   -41.1655   119.9771     2.6000    -2.0000   -34.2897    39.0000    30.0000    30.0000    39.0000    10.0000    30.0000    30.0000    30.0000    86.2904     0.0000    -1.9995    -0.0010     0.0000   159.4104   -41.1799     3.6423     0.3193    -0.1204    -9.8119    14.7005    14.6907     0.0098     1.0000     1.0000     1.000
    190   128.1000      1.000   1055.000  13510.000      5.145    66.7975   -22.2454   -41.1655   119.9771     2.6000    -2.0000   -34.2897    39.0000    30.0000    30.0000    39.0000    10.0000    30.0000    30.0000    30.0000    86.2904     0.0000    -1.9995    -0.0010     0.0000   159.4104   -41.1799     3.6423     0.3245    -0.1204    -9.8104    14.7005    14.6907     0.0098     1.0000     1.0000     1.000
    191   128.0000      1.000    912.000  13224.000      5.036    66.7975   -22.2454   -41.1655   119.9771     2.6000    -2.0000   -34.2897    39.0000    30.0000    30.0000    39.0000    10.0000    30.0000    30.0000    30.0000    86.2904     0.0000    -1.9995    -0.0010     0.0000   159.4104   -41.1799     3.6423     0.3297    -0.1204    -9.8089    14.7005    14.6907     0.0098     1.0000     1.0000     1.000
    192   127.9000      1.000    802.000  13490.000      5.137    66.7975   -22.2454   -41.1655   119.9771     2.6000    -2.0000   -34.2897    39.0000    30.0000    30.0000    39.0000    10.0000    30.0000    30.0000    30.0000    86.2904     0.0000    -1.9995    -0.0010     0.0000   159.4104   -41.1799     3.6423     0.3349    -0.1203    -9.8073    14.7005    14.6907     0.0098     1.0000     1.0000     1.000
    193   127.8000      1.000    793.000  13256.000      5.048    66.7975   -22.2454   -41.1655   119.9771     2.6000    -2.0000   -34.2897    39.0000    30.0000    30.0000    39.0000    10.0000    30.0000    30.0000    30.0000    86.2904     0.0000    -1.9995    -0.0010     0.0000   159.4104   -41.1799     3.6423     0.3401    -0.1203    -9.8058    14.7005    14.6907     0.0098     1.0000     1.0000     1.000
    194   127.7000      1.000    786.000  13370.000      5.091    66.7975   -22.2454   -41.1655   119.9771     2.6000    -2.0000   -34.2897    39.0000    30.0000    30.0000    39.0000    10.0000    30.0000    30.0000    30.0000    86.2904     0.0000    -1.9995    -0.0010     0.0000   159.4104   -41.1799     3.6423     0.3453    -0.1203    -9.8041    14.7005    14.6907     0.0098     1.0000     1.0000     1.000
    195   127.6000      1.000    849.000  13490.000      5.137    66.7975   -22.2454   -41.1655   119.9771     2.6000    -2.0000   -34.2897    39.0000    30.0000    30.0000    39.0000    10.0000    30.0000    30.0000    30.0000    86.2904     0.0000    -1.9995    -0.0010     0.0000   159.4104   -41.1799     3.6423     0.3505    -0.1203    -9.8025    14.7005    14.6907     0.0098     1.0000     1.0000     1.000
    196   127.5000      1.000    862.000  13599.000      5.179    66.7975   -22.2454   -41.1655   119.9771     2.6000    -2.0000   -34.2897    39.0000    30.0000    30.0000    39.0000    10.0000    30.0000    30.0000    30.0000    86.2904     0.0000    -1.9995    -0.0010     0.0000   159.4104   -41.1799     3.6423     0.3557    -0.1203    -9.8008    14.7005    14.6907     0.0098     1.0000     1.0000     1.000
    197   127.4000      1.000    844.000  13418.000      5.110    66.7975   -22.2454   -41.1655   119.9771     2.6000    -2.0000   -34.2897    39.0000    30.0000    30.0000    39.0000    10.0000    30.0000    30.0000    30.0000    86.2904     0.0000    -1.9995    -0.0010     0.0000   159.4104   -41.1799     3.6423     0.3609    -0.1202    -9.7991    14.7005    14.6907     0.0098     1.0000     1.0000     1.000
    198   127.3000      1.000    881.000  13257.000      5.048    66.7975   -22.2454   -41.1655   119.9771     2.6000    -2.0000   -34.2897    39.0000    30.0000    30.0000    39.0000    10.0000    30.0000    30.0000    30.0000    86.2904     0.0000    -1.9995    -0.0010     0.0000   159.4104   -41.1799     3.6423     0.3661    -0.1202    -9.7974    14.7005    14.6907     0.0098     1.0000     1.0000     1.000
    199   127.2000      1.000   1005.000  13375.000      5.093    66.7975   -22.2454   -41.1655   119.9771     2.6000    -2.0000   -34.2897    39.0000    30.0000    30.0000    39.0000    10.0000    30.0000    30.0000    30.0000    86.2904     0.0000    -1.9995    -0.0010     0.0000   159.4104   -41.1799     3.6423     0.3713    -0.1202    -9.7956    14.7005    14.6907     0.0098     1.0000     1.0000     1.000
    200   127.1000      1.000   1107.000  13648.000      5.197    66.7975   -22.2454   -41.1655   119.9771     2.6000    -2.0000   -34.2897    39.0000    30.0000    30.0000    39.0000    10.0000    30.0000    30.0000    30.0000    86.2904     0.0000    -1.9995    -0.0010     0.0000   159.4104   -41.1799     3.6423     0.3765    -0.1202    -9.7938    14.7005    14.6907     0.0098     1.0000     1.0000     1.000
    201   127.0000      1.000   1028.000  13456.000      5.124    66.7975   -22.2454   -41.1655   119.9771     2.6000    -2.0000   -34.2897    39.0000    30.0000    30.0000    39.0000    10.0000    30.0000    30.0000    30.0000    86.2904     0.0000    -1.9995    -0.0010     0.0000   159.4104   -41.1799     3.6423     0.3817    -0.1202    -9.7920    14.7005    14.6907     0.0098     1.0000     1.0000     1.000
# Sum of Counts = 3226148
# Center of Mass = 136.100634+/-0.107168
# Full Width Half-Maximum = 4.718479+/-0.014411
# 2:04:39 PM  9/5/2017   scan completed.
